#  E (eV)   dos(E)     Int dos(E) EFermi =    0.424 eV
 -15.000  0.4913E+00  0.1833E+02
 -14.990  0.4932E+00  0.1833E+02
 -14.980  0.4950E+00  0.1834E+02
 -14.970  0.4939E+00  0.1834E+02
 -14.960  0.4945E+00  0.1835E+02
 -14.950  0.4954E+00  0.1835E+02
 -14.940  0.4968E+00  0.1836E+02
 -14.930  0.4981E+00  0.1836E+02
 -14.920  0.4995E+00  0.1837E+02
 -14.910  0.5011E+00  0.1837E+02
 -14.900  0.5027E+00  0.1838E+02
 -14.890  0.5044E+00  0.1838E+02
 -14.880  0.5060E+00  0.1839E+02
 -14.870  0.5079E+00  0.1839E+02
 -14.860  0.5097E+00  0.1840E+02
 -14.850  0.5093E+00  0.1840E+02
 -14.840  0.5102E+00  0.1841E+02
 -14.830  0.5114E+00  0.1841E+02
 -14.820  0.5127E+00  0.1842E+02
 -14.810  0.5143E+00  0.1842E+02
 -14.800  0.5158E+00  0.1843E+02
 -14.790  0.5174E+00  0.1844E+02
 -14.780  0.5191E+00  0.1844E+02
 -14.770  0.5208E+00  0.1845E+02
 -14.760  0.5225E+00  0.1845E+02
 -14.750  0.5243E+00  0.1846E+02
 -14.740  0.5260E+00  0.1846E+02
 -14.730  0.5267E+00  0.1847E+02
 -14.720  0.5280E+00  0.1847E+02
 -14.710  0.5293E+00  0.1848E+02
 -14.700  0.5309E+00  0.1848E+02
 -14.690  0.5324E+00  0.1849E+02
 -14.680  0.5341E+00  0.1849E+02
 -14.670  0.5358E+00  0.1850E+02
 -14.660  0.5376E+00  0.1850E+02
 -14.650  0.5394E+00  0.1851E+02
 -14.640  0.5412E+00  0.1851E+02
 -14.630  0.5430E+00  0.1852E+02
 -14.620  0.5449E+00  0.1853E+02
 -14.610  0.5467E+00  0.1853E+02
 -14.600  0.5481E+00  0.1854E+02
 -14.590  0.5497E+00  0.1854E+02
 -14.580  0.5515E+00  0.1855E+02
 -14.570  0.5533E+00  0.1855E+02
 -14.560  0.5552E+00  0.1856E+02
 -14.550  0.5571E+00  0.1856E+02
 -14.540  0.5589E+00  0.1857E+02
 -14.530  0.5609E+00  0.1858E+02
 -14.520  0.5629E+00  0.1858E+02
 -14.510  0.5649E+00  0.1859E+02
 -14.500  0.5668E+00  0.1859E+02
 -14.490  0.5689E+00  0.1860E+02
 -14.480  0.5709E+00  0.1860E+02
 -14.470  0.5731E+00  0.1861E+02
 -14.460  0.5752E+00  0.1861E+02
 -14.450  0.5774E+00  0.1862E+02
 -14.440  0.5796E+00  0.1863E+02
 -14.430  0.5818E+00  0.1863E+02
 -14.420  0.5840E+00  0.1864E+02
 -14.410  0.5862E+00  0.1864E+02
 -14.400  0.5885E+00  0.1865E+02
 -14.390  0.5907E+00  0.1866E+02
 -14.380  0.1365E+01  0.1867E+02
 -14.370  0.1391E+01  0.1868E+02
 -14.360  0.1434E+01  0.1869E+02
 -14.350  0.1436E+01  0.1871E+02
 -14.340  0.1466E+01  0.1872E+02
 -14.330  0.1449E+01  0.1874E+02
 -14.320  0.1480E+01  0.1875E+02
 -14.310  0.1462E+01  0.1877E+02
 -14.300  0.1474E+01  0.1878E+02
 -14.290  0.1496E+01  0.1880E+02
 -14.280  0.1485E+01  0.1881E+02
 -14.270  0.1491E+01  0.1883E+02
 -14.260  0.1508E+01  0.1884E+02
 -14.250  0.1514E+01  0.1886E+02
 -14.240  0.1512E+01  0.1887E+02
 -14.230  0.1520E+01  0.1889E+02
 -14.220  0.1535E+01  0.1890E+02
 -14.210  0.1543E+01  0.1892E+02
 -14.200  0.1542E+01  0.1893E+02
 -14.190  0.1552E+01  0.1895E+02
 -14.180  0.1563E+01  0.1896E+02
 -14.170  0.1578E+01  0.1898E+02
 -14.160  0.1576E+01  0.1900E+02
 -14.150  0.1583E+01  0.1901E+02
 -14.140  0.1593E+01  0.1903E+02
 -14.130  0.1605E+01  0.1904E+02
 -14.120  0.1618E+01  0.1906E+02
 -14.110  0.1618E+01  0.1908E+02
 -14.100  0.1625E+01  0.1909E+02
 -14.090  0.1635E+01  0.1911E+02
 -14.080  0.1647E+01  0.1912E+02
 -14.070  0.1658E+01  0.1914E+02
 -14.060  0.1665E+01  0.1916E+02
 -14.050  0.1675E+01  0.1917E+02
 -14.040  0.1686E+01  0.1919E+02
 -14.030  0.1698E+01  0.1921E+02
 -14.020  0.1710E+01  0.1923E+02
 -14.010  0.1721E+01  0.1924E+02
 -14.000  0.1728E+01  0.1926E+02
 -13.990  0.1739E+01  0.1928E+02
 -13.980  0.1750E+01  0.1929E+02
 -13.970  0.1762E+01  0.1931E+02
 -13.960  0.1774E+01  0.1933E+02
 -13.950  0.1785E+01  0.1935E+02
 -13.940  0.1795E+01  0.1937E+02
 -13.930  0.1810E+01  0.1938E+02
 -13.920  0.1826E+01  0.1940E+02
 -13.910  0.1840E+01  0.1942E+02
 -13.900  0.1855E+01  0.1944E+02
 -13.890  0.1869E+01  0.1946E+02
 -13.880  0.1882E+01  0.1948E+02
 -13.870  0.1897E+01  0.1949E+02
 -13.860  0.1911E+01  0.1951E+02
 -13.850  0.1926E+01  0.1953E+02
 -13.840  0.1942E+01  0.1955E+02
 -13.830  0.1957E+01  0.1957E+02
 -13.820  0.1973E+01  0.1959E+02
 -13.810  0.1989E+01  0.1961E+02
 -13.800  0.2012E+01  0.1963E+02
 -13.790  0.2032E+01  0.1965E+02
 -13.780  0.2052E+01  0.1967E+02
 -13.770  0.2072E+01  0.1969E+02
 -13.760  0.2093E+01  0.1971E+02
 -13.750  0.2115E+01  0.1973E+02
 -13.740  0.2136E+01  0.1976E+02
 -13.730  0.2157E+01  0.1978E+02
 -13.720  0.2178E+01  0.1980E+02
 -13.710  0.2200E+01  0.1982E+02
 -13.700  0.2223E+01  0.1984E+02
 -13.690  0.2249E+01  0.1987E+02
 -13.680  0.2279E+01  0.1989E+02
 -13.670  0.2313E+01  0.1991E+02
 -13.660  0.2343E+01  0.1993E+02
 -13.650  0.2373E+01  0.1996E+02
 -13.640  0.2403E+01  0.1998E+02
 -13.630  0.2441E+01  0.2001E+02
 -13.620  0.2476E+01  0.2003E+02
 -13.610  0.2511E+01  0.2006E+02
 -13.600  0.2547E+01  0.2008E+02
 -13.590  0.2582E+01  0.2011E+02
 -13.580  0.2618E+01  0.2013E+02
 -13.570  0.2663E+01  0.2016E+02
 -13.560  0.2725E+01  0.2019E+02
 -13.550  0.2782E+01  0.2021E+02
 -13.540  0.2838E+01  0.2024E+02
 -13.530  0.2894E+01  0.2027E+02
 -13.520  0.2952E+01  0.2030E+02
 -13.510  0.3018E+01  0.2033E+02
 -13.500  0.3099E+01  0.2036E+02
 -13.490  0.3175E+01  0.2039E+02
 -13.480  0.3260E+01  0.2042E+02
 -13.470  0.3345E+01  0.2046E+02
 -13.460  0.3442E+01  0.2049E+02
 -13.450  0.3589E+01  0.2053E+02
 -13.440  0.3771E+01  0.2056E+02
 -13.430  0.3976E+01  0.2060E+02
 -13.420  0.4235E+01  0.2064E+02
 -13.410  0.4748E+01  0.2069E+02
 -13.400  0.4777E+01  0.2074E+02
 -13.390  0.4357E+01  0.2078E+02
 -13.380  0.4218E+01  0.2083E+02
 -13.370  0.4326E+01  0.2087E+02
 -13.360  0.4356E+01  0.2091E+02
 -13.350  0.4477E+01  0.2096E+02
 -13.340  0.4464E+01  0.2100E+02
 -13.330  0.4766E+01  0.2105E+02
 -13.320  0.5095E+01  0.2110E+02
 -13.310  0.5652E+01  0.2115E+02
 -13.300  0.6733E+01  0.2122E+02
 -13.290  0.5483E+01  0.2128E+02
 -13.280  0.4901E+01  0.2133E+02
 -13.270  0.4525E+01  0.2137E+02
 -13.260  0.4199E+01  0.2142E+02
 -13.250  0.4068E+01  0.2146E+02
 -13.240  0.3892E+01  0.2150E+02
 -13.230  0.3749E+01  0.2154E+02
 -13.220  0.3587E+01  0.2157E+02
 -13.210  0.3523E+01  0.2161E+02
 -13.200  0.3481E+01  0.2164E+02
 -13.190  0.3341E+01  0.2168E+02
 -13.180  0.3165E+01  0.2171E+02
 -13.170  0.3097E+01  0.2174E+02
 -13.160  0.3028E+01  0.2177E+02
 -13.150  0.3039E+01  0.2180E+02
 -13.140  0.2934E+01  0.2183E+02
 -13.130  0.2995E+01  0.2186E+02
 -13.120  0.2794E+01  0.2189E+02
 -13.110  0.2772E+01  0.2192E+02
 -13.100  0.1041E+01  0.2194E+02
 -13.090  0.1066E+01  0.2195E+02
 -13.080  0.9848E+00  0.2196E+02
 -13.070  0.9318E+00  0.2197E+02
 -13.060  0.1012E+01  0.2198E+02
 -13.050  0.8483E+00  0.2199E+02
 -13.040  0.2335E+00  0.2200E+02
 -13.030  0.0000E+00  0.2200E+02
 -13.020  0.0000E+00  0.2200E+02
 -13.010  0.0000E+00  0.2200E+02
 -13.000  0.0000E+00  0.2200E+02
 -12.990  0.0000E+00  0.2200E+02
 -12.980  0.0000E+00  0.2200E+02
 -12.970  0.0000E+00  0.2200E+02
 -12.960  0.0000E+00  0.2200E+02
 -12.950  0.0000E+00  0.2200E+02
 -12.940  0.0000E+00  0.2200E+02
 -12.930  0.0000E+00  0.2200E+02
 -12.920  0.0000E+00  0.2200E+02
 -12.910  0.0000E+00  0.2200E+02
 -12.900  0.0000E+00  0.2200E+02
 -12.890  0.0000E+00  0.2200E+02
 -12.880  0.0000E+00  0.2200E+02
 -12.870  0.0000E+00  0.2200E+02
 -12.860  0.0000E+00  0.2200E+02
 -12.850  0.0000E+00  0.2200E+02
 -12.840  0.0000E+00  0.2200E+02
 -12.830  0.0000E+00  0.2200E+02
 -12.820  0.0000E+00  0.2200E+02
 -12.810  0.0000E+00  0.2200E+02
 -12.800  0.0000E+00  0.2200E+02
 -12.790  0.0000E+00  0.2200E+02
 -12.780  0.0000E+00  0.2200E+02
 -12.770  0.0000E+00  0.2200E+02
 -12.760  0.0000E+00  0.2200E+02
 -12.750  0.0000E+00  0.2200E+02
 -12.740  0.0000E+00  0.2200E+02
 -12.730  0.0000E+00  0.2200E+02
 -12.720  0.0000E+00  0.2200E+02
 -12.710  0.0000E+00  0.2200E+02
 -12.700  0.0000E+00  0.2200E+02
 -12.690  0.0000E+00  0.2200E+02
 -12.680  0.0000E+00  0.2200E+02
 -12.670  0.0000E+00  0.2200E+02
 -12.660  0.0000E+00  0.2200E+02
 -12.650  0.0000E+00  0.2200E+02
 -12.640  0.0000E+00  0.2200E+02
 -12.630  0.0000E+00  0.2200E+02
 -12.620  0.0000E+00  0.2200E+02
 -12.610  0.0000E+00  0.2200E+02
 -12.600  0.0000E+00  0.2200E+02
 -12.590  0.0000E+00  0.2200E+02
 -12.580  0.0000E+00  0.2200E+02
 -12.570  0.0000E+00  0.2200E+02
 -12.560  0.0000E+00  0.2200E+02
 -12.550  0.0000E+00  0.2200E+02
 -12.540  0.0000E+00  0.2200E+02
 -12.530  0.0000E+00  0.2200E+02
 -12.520  0.0000E+00  0.2200E+02
 -12.510  0.0000E+00  0.2200E+02
 -12.500  0.0000E+00  0.2200E+02
 -12.490  0.0000E+00  0.2200E+02
 -12.480  0.0000E+00  0.2200E+02
 -12.470  0.0000E+00  0.2200E+02
 -12.460  0.0000E+00  0.2200E+02
 -12.450  0.0000E+00  0.2200E+02
 -12.440  0.0000E+00  0.2200E+02
 -12.430  0.0000E+00  0.2200E+02
 -12.420  0.0000E+00  0.2200E+02
 -12.410  0.0000E+00  0.2200E+02
 -12.400  0.0000E+00  0.2200E+02
 -12.390  0.0000E+00  0.2200E+02
 -12.380  0.0000E+00  0.2200E+02
 -12.370  0.0000E+00  0.2200E+02
 -12.360  0.0000E+00  0.2200E+02
 -12.350  0.0000E+00  0.2200E+02
 -12.340  0.0000E+00  0.2200E+02
 -12.330  0.0000E+00  0.2200E+02
 -12.320  0.0000E+00  0.2200E+02
 -12.310  0.0000E+00  0.2200E+02
 -12.300  0.0000E+00  0.2200E+02
 -12.290  0.0000E+00  0.2200E+02
 -12.280  0.0000E+00  0.2200E+02
 -12.270  0.0000E+00  0.2200E+02
 -12.260  0.0000E+00  0.2200E+02
 -12.250  0.0000E+00  0.2200E+02
 -12.240  0.0000E+00  0.2200E+02
 -12.230  0.0000E+00  0.2200E+02
 -12.220  0.0000E+00  0.2200E+02
 -12.210  0.0000E+00  0.2200E+02
 -12.200  0.0000E+00  0.2200E+02
 -12.190  0.0000E+00  0.2200E+02
 -12.180  0.0000E+00  0.2200E+02
 -12.170  0.0000E+00  0.2200E+02
 -12.160  0.0000E+00  0.2200E+02
 -12.150  0.0000E+00  0.2200E+02
 -12.140  0.0000E+00  0.2200E+02
 -12.130  0.0000E+00  0.2200E+02
 -12.120  0.0000E+00  0.2200E+02
 -12.110  0.0000E+00  0.2200E+02
 -12.100  0.0000E+00  0.2200E+02
 -12.090  0.0000E+00  0.2200E+02
 -12.080  0.0000E+00  0.2200E+02
 -12.070  0.0000E+00  0.2200E+02
 -12.060  0.0000E+00  0.2200E+02
 -12.050  0.0000E+00  0.2200E+02
 -12.040  0.0000E+00  0.2200E+02
 -12.030  0.0000E+00  0.2200E+02
 -12.020  0.0000E+00  0.2200E+02
 -12.010  0.0000E+00  0.2200E+02
 -12.000  0.0000E+00  0.2200E+02
 -11.990  0.0000E+00  0.2200E+02
 -11.980  0.0000E+00  0.2200E+02
 -11.970  0.0000E+00  0.2200E+02
 -11.960  0.0000E+00  0.2200E+02
 -11.950  0.0000E+00  0.2200E+02
 -11.940  0.0000E+00  0.2200E+02
 -11.930  0.0000E+00  0.2200E+02
 -11.920  0.0000E+00  0.2200E+02
 -11.910  0.0000E+00  0.2200E+02
 -11.900  0.0000E+00  0.2200E+02
 -11.890  0.0000E+00  0.2200E+02
 -11.880  0.0000E+00  0.2200E+02
 -11.870  0.0000E+00  0.2200E+02
 -11.860  0.0000E+00  0.2200E+02
 -11.850  0.0000E+00  0.2200E+02
 -11.840  0.0000E+00  0.2200E+02
 -11.830  0.0000E+00  0.2200E+02
 -11.820  0.0000E+00  0.2200E+02
 -11.810  0.0000E+00  0.2200E+02
 -11.800  0.0000E+00  0.2200E+02
 -11.790  0.0000E+00  0.2200E+02
 -11.780  0.0000E+00  0.2200E+02
 -11.770  0.0000E+00  0.2200E+02
 -11.760  0.0000E+00  0.2200E+02
 -11.750  0.0000E+00  0.2200E+02
 -11.740  0.0000E+00  0.2200E+02
 -11.730  0.0000E+00  0.2200E+02
 -11.720  0.0000E+00  0.2200E+02
 -11.710  0.0000E+00  0.2200E+02
 -11.700  0.0000E+00  0.2200E+02
 -11.690  0.0000E+00  0.2200E+02
 -11.680  0.0000E+00  0.2200E+02
 -11.670  0.0000E+00  0.2200E+02
 -11.660  0.0000E+00  0.2200E+02
 -11.650  0.0000E+00  0.2200E+02
 -11.640  0.0000E+00  0.2200E+02
 -11.630  0.0000E+00  0.2200E+02
 -11.620  0.0000E+00  0.2200E+02
 -11.610  0.0000E+00  0.2200E+02
 -11.600  0.0000E+00  0.2200E+02
 -11.590  0.0000E+00  0.2200E+02
 -11.580  0.0000E+00  0.2200E+02
 -11.570  0.0000E+00  0.2200E+02
 -11.560  0.0000E+00  0.2200E+02
 -11.550  0.0000E+00  0.2200E+02
 -11.540  0.0000E+00  0.2200E+02
 -11.530  0.0000E+00  0.2200E+02
 -11.520  0.0000E+00  0.2200E+02
 -11.510  0.0000E+00  0.2200E+02
 -11.500  0.0000E+00  0.2200E+02
 -11.490  0.0000E+00  0.2200E+02
 -11.480  0.0000E+00  0.2200E+02
 -11.470  0.0000E+00  0.2200E+02
 -11.460  0.0000E+00  0.2200E+02
 -11.450  0.0000E+00  0.2200E+02
 -11.440  0.0000E+00  0.2200E+02
 -11.430  0.0000E+00  0.2200E+02
 -11.420  0.0000E+00  0.2200E+02
 -11.410  0.0000E+00  0.2200E+02
 -11.400  0.0000E+00  0.2200E+02
 -11.390  0.0000E+00  0.2200E+02
 -11.380  0.0000E+00  0.2200E+02
 -11.370  0.0000E+00  0.2200E+02
 -11.360  0.0000E+00  0.2200E+02
 -11.350  0.0000E+00  0.2200E+02
 -11.340  0.0000E+00  0.2200E+02
 -11.330  0.0000E+00  0.2200E+02
 -11.320  0.0000E+00  0.2200E+02
 -11.310  0.0000E+00  0.2200E+02
 -11.300  0.0000E+00  0.2200E+02
 -11.290  0.0000E+00  0.2200E+02
 -11.280  0.0000E+00  0.2200E+02
 -11.270  0.0000E+00  0.2200E+02
 -11.260  0.0000E+00  0.2200E+02
 -11.250  0.0000E+00  0.2200E+02
 -11.240  0.0000E+00  0.2200E+02
 -11.230  0.0000E+00  0.2200E+02
 -11.220  0.0000E+00  0.2200E+02
 -11.210  0.0000E+00  0.2200E+02
 -11.200  0.0000E+00  0.2200E+02
 -11.190  0.0000E+00  0.2200E+02
 -11.180  0.0000E+00  0.2200E+02
 -11.170  0.0000E+00  0.2200E+02
 -11.160  0.0000E+00  0.2200E+02
 -11.150  0.0000E+00  0.2200E+02
 -11.140  0.0000E+00  0.2200E+02
 -11.130  0.0000E+00  0.2200E+02
 -11.120  0.0000E+00  0.2200E+02
 -11.110  0.0000E+00  0.2200E+02
 -11.100  0.0000E+00  0.2200E+02
 -11.090  0.0000E+00  0.2200E+02
 -11.080  0.0000E+00  0.2200E+02
 -11.070  0.0000E+00  0.2200E+02
 -11.060  0.0000E+00  0.2200E+02
 -11.050  0.0000E+00  0.2200E+02
 -11.040  0.0000E+00  0.2200E+02
 -11.030  0.0000E+00  0.2200E+02
 -11.020  0.0000E+00  0.2200E+02
 -11.010  0.0000E+00  0.2200E+02
 -11.000  0.0000E+00  0.2200E+02
 -10.990  0.0000E+00  0.2200E+02
 -10.980  0.0000E+00  0.2200E+02
 -10.970  0.0000E+00  0.2200E+02
 -10.960  0.0000E+00  0.2200E+02
 -10.950  0.0000E+00  0.2200E+02
 -10.940  0.0000E+00  0.2200E+02
 -10.930  0.0000E+00  0.2200E+02
 -10.920  0.0000E+00  0.2200E+02
 -10.910  0.0000E+00  0.2200E+02
 -10.900  0.0000E+00  0.2200E+02
 -10.890  0.0000E+00  0.2200E+02
 -10.880  0.0000E+00  0.2200E+02
 -10.870  0.0000E+00  0.2200E+02
 -10.860  0.0000E+00  0.2200E+02
 -10.850  0.0000E+00  0.2200E+02
 -10.840  0.0000E+00  0.2200E+02
 -10.830  0.0000E+00  0.2200E+02
 -10.820  0.0000E+00  0.2200E+02
 -10.810  0.0000E+00  0.2200E+02
 -10.800  0.0000E+00  0.2200E+02
 -10.790  0.0000E+00  0.2200E+02
 -10.780  0.0000E+00  0.2200E+02
 -10.770  0.0000E+00  0.2200E+02
 -10.760  0.0000E+00  0.2200E+02
 -10.750  0.0000E+00  0.2200E+02
 -10.740  0.0000E+00  0.2200E+02
 -10.730  0.0000E+00  0.2200E+02
 -10.720  0.0000E+00  0.2200E+02
 -10.710  0.0000E+00  0.2200E+02
 -10.700  0.0000E+00  0.2200E+02
 -10.690  0.0000E+00  0.2200E+02
 -10.680  0.0000E+00  0.2200E+02
 -10.670  0.0000E+00  0.2200E+02
 -10.660  0.0000E+00  0.2200E+02
 -10.650  0.0000E+00  0.2200E+02
 -10.640  0.0000E+00  0.2200E+02
 -10.630  0.0000E+00  0.2200E+02
 -10.620  0.0000E+00  0.2200E+02
 -10.610  0.0000E+00  0.2200E+02
 -10.600  0.0000E+00  0.2200E+02
 -10.590  0.0000E+00  0.2200E+02
 -10.580  0.0000E+00  0.2200E+02
 -10.570  0.0000E+00  0.2200E+02
 -10.560  0.0000E+00  0.2200E+02
 -10.550  0.0000E+00  0.2200E+02
 -10.540  0.0000E+00  0.2200E+02
 -10.530  0.0000E+00  0.2200E+02
 -10.520  0.0000E+00  0.2200E+02
 -10.510  0.0000E+00  0.2200E+02
 -10.500  0.0000E+00  0.2200E+02
 -10.490  0.0000E+00  0.2200E+02
 -10.480  0.0000E+00  0.2200E+02
 -10.470  0.0000E+00  0.2200E+02
 -10.460  0.0000E+00  0.2200E+02
 -10.450  0.0000E+00  0.2200E+02
 -10.440  0.0000E+00  0.2200E+02
 -10.430  0.0000E+00  0.2200E+02
 -10.420  0.0000E+00  0.2200E+02
 -10.410  0.0000E+00  0.2200E+02
 -10.400  0.0000E+00  0.2200E+02
 -10.390  0.0000E+00  0.2200E+02
 -10.380  0.0000E+00  0.2200E+02
 -10.370  0.0000E+00  0.2200E+02
 -10.360  0.0000E+00  0.2200E+02
 -10.350  0.0000E+00  0.2200E+02
 -10.340  0.0000E+00  0.2200E+02
 -10.330  0.0000E+00  0.2200E+02
 -10.320  0.0000E+00  0.2200E+02
 -10.310  0.0000E+00  0.2200E+02
 -10.300  0.0000E+00  0.2200E+02
 -10.290  0.0000E+00  0.2200E+02
 -10.280  0.0000E+00  0.2200E+02
 -10.270  0.0000E+00  0.2200E+02
 -10.260  0.0000E+00  0.2200E+02
 -10.250  0.0000E+00  0.2200E+02
 -10.240  0.0000E+00  0.2200E+02
 -10.230  0.0000E+00  0.2200E+02
 -10.220  0.0000E+00  0.2200E+02
 -10.210  0.0000E+00  0.2200E+02
 -10.200  0.0000E+00  0.2200E+02
 -10.190  0.0000E+00  0.2200E+02
 -10.180  0.0000E+00  0.2200E+02
 -10.170  0.0000E+00  0.2200E+02
 -10.160  0.0000E+00  0.2200E+02
 -10.150  0.0000E+00  0.2200E+02
 -10.140  0.0000E+00  0.2200E+02
 -10.130  0.0000E+00  0.2200E+02
 -10.120  0.0000E+00  0.2200E+02
 -10.110  0.0000E+00  0.2200E+02
 -10.100  0.0000E+00  0.2200E+02
 -10.090  0.0000E+00  0.2200E+02
 -10.080  0.0000E+00  0.2200E+02
 -10.070  0.0000E+00  0.2200E+02
 -10.060  0.0000E+00  0.2200E+02
 -10.050  0.0000E+00  0.2200E+02
 -10.040  0.0000E+00  0.2200E+02
 -10.030  0.0000E+00  0.2200E+02
 -10.020  0.0000E+00  0.2200E+02
 -10.010  0.0000E+00  0.2200E+02
 -10.000  0.0000E+00  0.2200E+02
  -9.990  0.0000E+00  0.2200E+02
  -9.980  0.0000E+00  0.2200E+02
  -9.970  0.0000E+00  0.2200E+02
  -9.960  0.0000E+00  0.2200E+02
  -9.950  0.0000E+00  0.2200E+02
  -9.940  0.0000E+00  0.2200E+02
  -9.930  0.0000E+00  0.2200E+02
  -9.920  0.0000E+00  0.2200E+02
  -9.910  0.0000E+00  0.2200E+02
  -9.900  0.0000E+00  0.2200E+02
  -9.890  0.0000E+00  0.2200E+02
  -9.880  0.0000E+00  0.2200E+02
  -9.870  0.0000E+00  0.2200E+02
  -9.860  0.0000E+00  0.2200E+02
  -9.850  0.0000E+00  0.2200E+02
  -9.840  0.0000E+00  0.2200E+02
  -9.830  0.0000E+00  0.2200E+02
  -9.820  0.0000E+00  0.2200E+02
  -9.810  0.0000E+00  0.2200E+02
  -9.800  0.0000E+00  0.2200E+02
  -9.790  0.0000E+00  0.2200E+02
  -9.780  0.0000E+00  0.2200E+02
  -9.770  0.0000E+00  0.2200E+02
  -9.760  0.0000E+00  0.2200E+02
  -9.750  0.0000E+00  0.2200E+02
  -9.740  0.0000E+00  0.2200E+02
  -9.730  0.0000E+00  0.2200E+02
  -9.720  0.0000E+00  0.2200E+02
  -9.710  0.0000E+00  0.2200E+02
  -9.700  0.0000E+00  0.2200E+02
  -9.690  0.0000E+00  0.2200E+02
  -9.680  0.0000E+00  0.2200E+02
  -9.670  0.0000E+00  0.2200E+02
  -9.660  0.0000E+00  0.2200E+02
  -9.650  0.0000E+00  0.2200E+02
  -9.640  0.0000E+00  0.2200E+02
  -9.630  0.0000E+00  0.2200E+02
  -9.620  0.0000E+00  0.2200E+02
  -9.610  0.0000E+00  0.2200E+02
  -9.600  0.0000E+00  0.2200E+02
  -9.590  0.0000E+00  0.2200E+02
  -9.580  0.0000E+00  0.2200E+02
  -9.570  0.0000E+00  0.2200E+02
  -9.560  0.0000E+00  0.2200E+02
  -9.550  0.0000E+00  0.2200E+02
  -9.540  0.0000E+00  0.2200E+02
  -9.530  0.0000E+00  0.2200E+02
  -9.520  0.0000E+00  0.2200E+02
  -9.510  0.0000E+00  0.2200E+02
  -9.500  0.0000E+00  0.2200E+02
  -9.490  0.0000E+00  0.2200E+02
  -9.480  0.0000E+00  0.2200E+02
  -9.470  0.0000E+00  0.2200E+02
  -9.460  0.0000E+00  0.2200E+02
  -9.450  0.0000E+00  0.2200E+02
  -9.440  0.0000E+00  0.2200E+02
  -9.430  0.0000E+00  0.2200E+02
  -9.420  0.0000E+00  0.2200E+02
  -9.410  0.0000E+00  0.2200E+02
  -9.400  0.0000E+00  0.2200E+02
  -9.390  0.0000E+00  0.2200E+02
  -9.380  0.0000E+00  0.2200E+02
  -9.370  0.0000E+00  0.2200E+02
  -9.360  0.0000E+00  0.2200E+02
  -9.350  0.0000E+00  0.2200E+02
  -9.340  0.0000E+00  0.2200E+02
  -9.330  0.0000E+00  0.2200E+02
  -9.320  0.0000E+00  0.2200E+02
  -9.310  0.0000E+00  0.2200E+02
  -9.300  0.0000E+00  0.2200E+02
  -9.290  0.0000E+00  0.2200E+02
  -9.280  0.0000E+00  0.2200E+02
  -9.270  0.0000E+00  0.2200E+02
  -9.260  0.0000E+00  0.2200E+02
  -9.250  0.0000E+00  0.2200E+02
  -9.240  0.0000E+00  0.2200E+02
  -9.230  0.0000E+00  0.2200E+02
  -9.220  0.0000E+00  0.2200E+02
  -9.210  0.0000E+00  0.2200E+02
  -9.200  0.0000E+00  0.2200E+02
  -9.190  0.0000E+00  0.2200E+02
  -9.180  0.0000E+00  0.2200E+02
  -9.170  0.0000E+00  0.2200E+02
  -9.160  0.0000E+00  0.2200E+02
  -9.150  0.0000E+00  0.2200E+02
  -9.140  0.0000E+00  0.2200E+02
  -9.130  0.0000E+00  0.2200E+02
  -9.120  0.0000E+00  0.2200E+02
  -9.110  0.0000E+00  0.2200E+02
  -9.100  0.0000E+00  0.2200E+02
  -9.090  0.0000E+00  0.2200E+02
  -9.080  0.0000E+00  0.2200E+02
  -9.070  0.0000E+00  0.2200E+02
  -9.060  0.0000E+00  0.2200E+02
  -9.050  0.0000E+00  0.2200E+02
  -9.040  0.0000E+00  0.2200E+02
  -9.030  0.0000E+00  0.2200E+02
  -9.020  0.0000E+00  0.2200E+02
  -9.010  0.0000E+00  0.2200E+02
  -9.000  0.0000E+00  0.2200E+02
  -8.990  0.0000E+00  0.2200E+02
  -8.980  0.0000E+00  0.2200E+02
  -8.970  0.0000E+00  0.2200E+02
  -8.960  0.0000E+00  0.2200E+02
  -8.950  0.0000E+00  0.2200E+02
  -8.940  0.0000E+00  0.2200E+02
  -8.930  0.0000E+00  0.2200E+02
  -8.920  0.0000E+00  0.2200E+02
  -8.910  0.0000E+00  0.2200E+02
  -8.900  0.0000E+00  0.2200E+02
  -8.890  0.0000E+00  0.2200E+02
  -8.880  0.0000E+00  0.2200E+02
  -8.870  0.0000E+00  0.2200E+02
  -8.860  0.0000E+00  0.2200E+02
  -8.850  0.0000E+00  0.2200E+02
  -8.840  0.0000E+00  0.2200E+02
  -8.830  0.0000E+00  0.2200E+02
  -8.820  0.0000E+00  0.2200E+02
  -8.810  0.0000E+00  0.2200E+02
  -8.800  0.0000E+00  0.2200E+02
  -8.790  0.0000E+00  0.2200E+02
  -8.780  0.0000E+00  0.2200E+02
  -8.770  0.0000E+00  0.2200E+02
  -8.760  0.0000E+00  0.2200E+02
  -8.750  0.0000E+00  0.2200E+02
  -8.740  0.0000E+00  0.2200E+02
  -8.730  0.0000E+00  0.2200E+02
  -8.720  0.0000E+00  0.2200E+02
  -8.710  0.0000E+00  0.2200E+02
  -8.700  0.0000E+00  0.2200E+02
  -8.690  0.0000E+00  0.2200E+02
  -8.680  0.0000E+00  0.2200E+02
  -8.670  0.0000E+00  0.2200E+02
  -8.660  0.0000E+00  0.2200E+02
  -8.650  0.0000E+00  0.2200E+02
  -8.640  0.0000E+00  0.2200E+02
  -8.630  0.0000E+00  0.2200E+02
  -8.620  0.0000E+00  0.2200E+02
  -8.610  0.0000E+00  0.2200E+02
  -8.600  0.0000E+00  0.2200E+02
  -8.590  0.0000E+00  0.2200E+02
  -8.580  0.0000E+00  0.2200E+02
  -8.570  0.0000E+00  0.2200E+02
  -8.560  0.0000E+00  0.2200E+02
  -8.550  0.0000E+00  0.2200E+02
  -8.540  0.0000E+00  0.2200E+02
  -8.530  0.0000E+00  0.2200E+02
  -8.520  0.0000E+00  0.2200E+02
  -8.510  0.0000E+00  0.2200E+02
  -8.500  0.0000E+00  0.2200E+02
  -8.490  0.0000E+00  0.2200E+02
  -8.480  0.0000E+00  0.2200E+02
  -8.470  0.0000E+00  0.2200E+02
  -8.460  0.0000E+00  0.2200E+02
  -8.450  0.0000E+00  0.2200E+02
  -8.440  0.0000E+00  0.2200E+02
  -8.430  0.0000E+00  0.2200E+02
  -8.420  0.0000E+00  0.2200E+02
  -8.410  0.0000E+00  0.2200E+02
  -8.400  0.0000E+00  0.2200E+02
  -8.390  0.0000E+00  0.2200E+02
  -8.380  0.0000E+00  0.2200E+02
  -8.370  0.0000E+00  0.2200E+02
  -8.360  0.0000E+00  0.2200E+02
  -8.350  0.0000E+00  0.2200E+02
  -8.340  0.0000E+00  0.2200E+02
  -8.330  0.0000E+00  0.2200E+02
  -8.320  0.0000E+00  0.2200E+02
  -8.310  0.0000E+00  0.2200E+02
  -8.300  0.0000E+00  0.2200E+02
  -8.290  0.0000E+00  0.2200E+02
  -8.280  0.0000E+00  0.2200E+02
  -8.270  0.0000E+00  0.2200E+02
  -8.260  0.0000E+00  0.2200E+02
  -8.250  0.0000E+00  0.2200E+02
  -8.240  0.0000E+00  0.2200E+02
  -8.230  0.0000E+00  0.2200E+02
  -8.220  0.0000E+00  0.2200E+02
  -8.210  0.0000E+00  0.2200E+02
  -8.200  0.0000E+00  0.2200E+02
  -8.190  0.0000E+00  0.2200E+02
  -8.180  0.0000E+00  0.2200E+02
  -8.170  0.0000E+00  0.2200E+02
  -8.160  0.0000E+00  0.2200E+02
  -8.150  0.0000E+00  0.2200E+02
  -8.140  0.0000E+00  0.2200E+02
  -8.130  0.0000E+00  0.2200E+02
  -8.120  0.0000E+00  0.2200E+02
  -8.110  0.0000E+00  0.2200E+02
  -8.100  0.0000E+00  0.2200E+02
  -8.090  0.0000E+00  0.2200E+02
  -8.080  0.0000E+00  0.2200E+02
  -8.070  0.0000E+00  0.2200E+02
  -8.060  0.0000E+00  0.2200E+02
  -8.050  0.0000E+00  0.2200E+02
  -8.040  0.0000E+00  0.2200E+02
  -8.030  0.0000E+00  0.2200E+02
  -8.020  0.0000E+00  0.2200E+02
  -8.010  0.0000E+00  0.2200E+02
  -8.000  0.0000E+00  0.2200E+02
  -7.990  0.0000E+00  0.2200E+02
  -7.980  0.0000E+00  0.2200E+02
  -7.970  0.0000E+00  0.2200E+02
  -7.960  0.0000E+00  0.2200E+02
  -7.950  0.0000E+00  0.2200E+02
  -7.940  0.0000E+00  0.2200E+02
  -7.930  0.0000E+00  0.2200E+02
  -7.920  0.0000E+00  0.2200E+02
  -7.910  0.0000E+00  0.2200E+02
  -7.900  0.0000E+00  0.2200E+02
  -7.890  0.0000E+00  0.2200E+02
  -7.880  0.0000E+00  0.2200E+02
  -7.870  0.0000E+00  0.2200E+02
  -7.860  0.0000E+00  0.2200E+02
  -7.850  0.0000E+00  0.2200E+02
  -7.840  0.0000E+00  0.2200E+02
  -7.830  0.0000E+00  0.2200E+02
  -7.820  0.0000E+00  0.2200E+02
  -7.810  0.0000E+00  0.2200E+02
  -7.800  0.0000E+00  0.2200E+02
  -7.790  0.0000E+00  0.2200E+02
  -7.780  0.0000E+00  0.2200E+02
  -7.770  0.0000E+00  0.2200E+02
  -7.760  0.0000E+00  0.2200E+02
  -7.750  0.0000E+00  0.2200E+02
  -7.740  0.0000E+00  0.2200E+02
  -7.730  0.0000E+00  0.2200E+02
  -7.720  0.0000E+00  0.2200E+02
  -7.710  0.0000E+00  0.2200E+02
  -7.700  0.0000E+00  0.2200E+02
  -7.690  0.0000E+00  0.2200E+02
  -7.680  0.0000E+00  0.2200E+02
  -7.670  0.0000E+00  0.2200E+02
  -7.660  0.0000E+00  0.2200E+02
  -7.650  0.0000E+00  0.2200E+02
  -7.640  0.0000E+00  0.2200E+02
  -7.630  0.0000E+00  0.2200E+02
  -7.620  0.0000E+00  0.2200E+02
  -7.610  0.0000E+00  0.2200E+02
  -7.600  0.0000E+00  0.2200E+02
  -7.590  0.0000E+00  0.2200E+02
  -7.580  0.0000E+00  0.2200E+02
  -7.570  0.0000E+00  0.2200E+02
  -7.560  0.0000E+00  0.2200E+02
  -7.550  0.0000E+00  0.2200E+02
  -7.540  0.0000E+00  0.2200E+02
  -7.530  0.0000E+00  0.2200E+02
  -7.520  0.0000E+00  0.2200E+02
  -7.510  0.0000E+00  0.2200E+02
  -7.500  0.0000E+00  0.2200E+02
  -7.490  0.0000E+00  0.2200E+02
  -7.480  0.0000E+00  0.2200E+02
  -7.470  0.0000E+00  0.2200E+02
  -7.460  0.0000E+00  0.2200E+02
  -7.450  0.0000E+00  0.2200E+02
  -7.440  0.0000E+00  0.2200E+02
  -7.430  0.0000E+00  0.2200E+02
  -7.420  0.0000E+00  0.2200E+02
  -7.410  0.0000E+00  0.2200E+02
  -7.400  0.0000E+00  0.2200E+02
  -7.390  0.0000E+00  0.2200E+02
  -7.380  0.0000E+00  0.2200E+02
  -7.370  0.0000E+00  0.2200E+02
  -7.360  0.0000E+00  0.2200E+02
  -7.350  0.4968E+00  0.2200E+02
  -7.340  0.7553E+00  0.2201E+02
  -7.330  0.6769E+00  0.2202E+02
  -7.320  0.7409E+00  0.2202E+02
  -7.310  0.8103E+00  0.2203E+02
  -7.300  0.7205E+00  0.2204E+02
  -7.290  0.7077E+00  0.2205E+02
  -7.280  0.7248E+00  0.2205E+02
  -7.270  0.7524E+00  0.2206E+02
  -7.260  0.8107E+00  0.2207E+02
  -7.250  0.1034E+01  0.2208E+02
  -7.240  0.1073E+01  0.2209E+02
  -7.230  0.1091E+01  0.2210E+02
  -7.220  0.1066E+01  0.2211E+02
  -7.210  0.1097E+01  0.2212E+02
  -7.200  0.1127E+01  0.2213E+02
  -7.190  0.1121E+01  0.2214E+02
  -7.180  0.1117E+01  0.2215E+02
  -7.170  0.1107E+01  0.2217E+02
  -7.160  0.1116E+01  0.2218E+02
  -7.150  0.1128E+01  0.2219E+02
  -7.140  0.1119E+01  0.2220E+02
  -7.130  0.1126E+01  0.2221E+02
  -7.120  0.1137E+01  0.2222E+02
  -7.110  0.1148E+01  0.2223E+02
  -7.100  0.1161E+01  0.2224E+02
  -7.090  0.1172E+01  0.2226E+02
  -7.080  0.1155E+01  0.2227E+02
  -7.070  0.1155E+01  0.2228E+02
  -7.060  0.1159E+01  0.2229E+02
  -7.050  0.1166E+01  0.2230E+02
  -7.040  0.1176E+01  0.2231E+02
  -7.030  0.1184E+01  0.2233E+02
  -7.020  0.1195E+01  0.2234E+02
  -7.010  0.1202E+01  0.2235E+02
  -7.000  0.1203E+01  0.2236E+02
  -6.990  0.1212E+01  0.2237E+02
  -6.980  0.1211E+01  0.2239E+02
  -6.970  0.1216E+01  0.2240E+02
  -6.960  0.1223E+01  0.2241E+02
  -6.950  0.1230E+01  0.2242E+02
  -6.940  0.1238E+01  0.2244E+02
  -6.930  0.1246E+01  0.2245E+02
  -6.920  0.1250E+01  0.2246E+02
  -6.910  0.1256E+01  0.2247E+02
  -6.900  0.1263E+01  0.2249E+02
  -6.890  0.1272E+01  0.2250E+02
  -6.880  0.1281E+01  0.2251E+02
  -6.870  0.1290E+01  0.2252E+02
  -6.860  0.1296E+01  0.2254E+02
  -6.850  0.1305E+01  0.2255E+02
  -6.840  0.1314E+01  0.2256E+02
  -6.830  0.1323E+01  0.2258E+02
  -6.820  0.1327E+01  0.2259E+02
  -6.810  0.1335E+01  0.2260E+02
  -6.800  0.1344E+01  0.2262E+02
  -6.790  0.1354E+01  0.2263E+02
  -6.780  0.1365E+01  0.2264E+02
  -6.770  0.1375E+01  0.2266E+02
  -6.760  0.1386E+01  0.2267E+02
  -6.750  0.1397E+01  0.2268E+02
  -6.740  0.1411E+01  0.2270E+02
  -6.730  0.1424E+01  0.2271E+02
  -6.720  0.1435E+01  0.2273E+02
  -6.710  0.1446E+01  0.2274E+02
  -6.700  0.1458E+01  0.2276E+02
  -6.690  0.1472E+01  0.2277E+02
  -6.680  0.1486E+01  0.2279E+02
  -6.670  0.1500E+01  0.2280E+02
  -6.660  0.1515E+01  0.2282E+02
  -6.650  0.1530E+01  0.2283E+02
  -6.640  0.1545E+01  0.2285E+02
  -6.630  0.1566E+01  0.2286E+02
  -6.620  0.1593E+01  0.2288E+02
  -6.610  0.1617E+01  0.2289E+02
  -6.600  0.1639E+01  0.2291E+02
  -6.590  0.1663E+01  0.2293E+02
  -6.580  0.1689E+01  0.2294E+02
  -6.570  0.1717E+01  0.2296E+02
  -6.560  0.1744E+01  0.2298E+02
  -6.550  0.1773E+01  0.2299E+02
  -6.540  0.1805E+01  0.2301E+02
  -6.530  0.1836E+01  0.2303E+02
  -6.520  0.1916E+01  0.2305E+02
  -6.510  0.1982E+01  0.2307E+02
  -6.500  0.2074E+01  0.2309E+02
  -6.490  0.2198E+01  0.2311E+02
  -6.480  0.2345E+01  0.2313E+02
  -6.470  0.2554E+01  0.2316E+02
  -6.460  0.2992E+01  0.2319E+02
  -6.450  0.2509E+01  0.2321E+02
  -6.440  0.2842E+01  0.2324E+02
  -6.430  0.2940E+01  0.2327E+02
  -6.420  0.3071E+01  0.2330E+02
  -6.410  0.3705E+01  0.2334E+02
  -6.400  0.2396E+01  0.2337E+02
  -6.390  0.1424E+01  0.2339E+02
  -6.380  0.2317E+01  0.2341E+02
  -6.370  0.2522E+01  0.2343E+02
  -6.360  0.2389E+01  0.2346E+02
  -6.350  0.2514E+01  0.2348E+02
  -6.340  0.2693E+01  0.2351E+02
  -6.330  0.4114E+01  0.2354E+02
  -6.320  0.2753E+01  0.2357E+02
  -6.310  0.2798E+01  0.2360E+02
  -6.300  0.2839E+01  0.2363E+02
  -6.290  0.2856E+01  0.2365E+02
  -6.280  0.2997E+01  0.2368E+02
  -6.270  0.3054E+01  0.2371E+02
  -6.260  0.3090E+01  0.2374E+02
  -6.250  0.3139E+01  0.2378E+02
  -6.240  0.3360E+01  0.2381E+02
  -6.230  0.3590E+01  0.2384E+02
  -6.220  0.4211E+01  0.2388E+02
  -6.210  0.7474E+01  0.2393E+02
  -6.200  0.5351E+01  0.2399E+02
  -6.190  0.4585E+01  0.2404E+02
  -6.180  0.4379E+01  0.2409E+02
  -6.170  0.4814E+01  0.2413E+02
  -6.160  0.3928E+01  0.2418E+02
  -6.150  0.3508E+01  0.2421E+02
  -6.140  0.3214E+01  0.2425E+02
  -6.130  0.3190E+01  0.2428E+02
  -6.120  0.2959E+01  0.2431E+02
  -6.110  0.2914E+01  0.2434E+02
  -6.100  0.2780E+01  0.2437E+02
  -6.090  0.2626E+01  0.2439E+02
  -6.080  0.2469E+01  0.2442E+02
  -6.070  0.2326E+01  0.2444E+02
  -6.060  0.2284E+01  0.2447E+02
  -6.050  0.2243E+01  0.2449E+02
  -6.040  0.2202E+01  0.2451E+02
  -6.030  0.2095E+01  0.2453E+02
  -6.020  0.2047E+01  0.2455E+02
  -6.010  0.1998E+01  0.2457E+02
  -6.000  0.1970E+01  0.2459E+02
  -5.990  0.1888E+01  0.2461E+02
  -5.980  0.1804E+01  0.2463E+02
  -5.970  0.1786E+01  0.2465E+02
  -5.960  0.1743E+01  0.2467E+02
  -5.950  0.1628E+01  0.2468E+02
  -5.940  0.1528E+01  0.2470E+02
  -5.930  0.1662E+01  0.2472E+02
  -5.920  0.9355E+00  0.2473E+02
  -5.910  0.9230E+00  0.2474E+02
  -5.900  0.9104E+00  0.2475E+02
  -5.890  0.8978E+00  0.2476E+02
  -5.880  0.8852E+00  0.2477E+02
  -5.870  0.8726E+00  0.2478E+02
  -5.860  0.8601E+00  0.2479E+02
  -5.850  0.8483E+00  0.2480E+02
  -5.840  0.8369E+00  0.2480E+02
  -5.830  0.8254E+00  0.2481E+02
  -5.820  0.8113E+00  0.2482E+02
  -5.810  0.7944E+00  0.2483E+02
  -5.800  0.7860E+00  0.2484E+02
  -5.790  0.7777E+00  0.2484E+02
  -5.780  0.7703E+00  0.2485E+02
  -5.770  0.7633E+00  0.2486E+02
  -5.760  0.7563E+00  0.2487E+02
  -5.750  0.7494E+00  0.2487E+02
  -5.740  0.7421E+00  0.2488E+02
  -5.730  0.7349E+00  0.2489E+02
  -5.720  0.7277E+00  0.2490E+02
  -5.710  0.7206E+00  0.2490E+02
  -5.700  0.7144E+00  0.2491E+02
  -5.690  0.7077E+00  0.2492E+02
  -5.680  0.7009E+00  0.2493E+02
  -5.670  0.6941E+00  0.2493E+02
  -5.660  0.6832E+00  0.2494E+02
  -5.650  0.6770E+00  0.2495E+02
  -5.640  0.6725E+00  0.2495E+02
  -5.630  0.6681E+00  0.2496E+02
  -5.620  0.6649E+00  0.2497E+02
  -5.610  0.6622E+00  0.2497E+02
  -5.600  0.6594E+00  0.2498E+02
  -5.590  0.6566E+00  0.2499E+02
  -5.580  0.6539E+00  0.2499E+02
  -5.570  0.6510E+00  0.2500E+02
  -5.560  0.6481E+00  0.2501E+02
  -5.550  0.6453E+00  0.2501E+02
  -5.540  0.6445E+00  0.2502E+02
  -5.530  0.6465E+00  0.2502E+02
  -5.520  0.6484E+00  0.2503E+02
  -5.510  0.6498E+00  0.2504E+02
  -5.500  0.6511E+00  0.2504E+02
  -5.490  0.6501E+00  0.2505E+02
  -5.480  0.6530E+00  0.2506E+02
  -5.470  0.6559E+00  0.2506E+02
  -5.460  0.6676E+00  0.2507E+02
  -5.450  0.6921E+00  0.2508E+02
  -5.440  0.1670E+01  0.2509E+02
  -5.430  0.2082E+01  0.2511E+02
  -5.420  0.1842E+01  0.2513E+02
  -5.410  0.2343E+01  0.2515E+02
  -5.400  0.2537E+01  0.2517E+02
  -5.390  0.3383E+01  0.2520E+02
  -5.380  0.8624E+01  0.2525E+02
  -5.370  0.5001E+01  0.2533E+02
  -5.360  0.2944E+01  0.2537E+02
  -5.350  0.2759E+01  0.2540E+02
  -5.340  0.1838E+01  0.2542E+02
  -5.330  0.1744E+01  0.2544E+02
  -5.320  0.1752E+01  0.2546E+02
  -5.310  0.1730E+01  0.2547E+02
  -5.300  0.9313E+00  0.2549E+02
  -5.290  0.7607E+00  0.2550E+02
  -5.280  0.7863E+00  0.2550E+02
  -5.270  0.8189E+00  0.2551E+02
  -5.260  0.7298E+00  0.2552E+02
  -5.250  0.7192E+00  0.2553E+02
  -5.240  0.7086E+00  0.2554E+02
  -5.230  0.6981E+00  0.2554E+02
  -5.220  0.1825E+01  0.2555E+02
  -5.210  0.2563E+01  0.2557E+02
  -5.200  0.2833E+01  0.2560E+02
  -5.190  0.2995E+01  0.2563E+02
  -5.180  0.4114E+01  0.2567E+02
  -5.170  0.4299E+01  0.2571E+02
  -5.160  0.4308E+01  0.2575E+02
  -5.150  0.4011E+01  0.2579E+02
  -5.140  0.3931E+01  0.2583E+02
  -5.130  0.4036E+01  0.2587E+02
  -5.120  0.4702E+01  0.2592E+02
  -5.110  0.6657E+01  0.2597E+02
  -5.100  0.7368E+01  0.2606E+02
  -5.090  0.5776E+01  0.2612E+02
  -5.080  0.4982E+01  0.2618E+02
  -5.070  0.4829E+01  0.2623E+02
  -5.060  0.4405E+01  0.2627E+02
  -5.050  0.4317E+01  0.2632E+02
  -5.040  0.4054E+01  0.2636E+02
  -5.030  0.4018E+01  0.2640E+02
  -5.020  0.4024E+01  0.2644E+02
  -5.010  0.3884E+01  0.2648E+02
  -5.000  0.3834E+01  0.2652E+02
  -4.990  0.3859E+01  0.2655E+02
  -4.980  0.3911E+01  0.2659E+02
  -4.970  0.3952E+01  0.2663E+02
  -4.960  0.4211E+01  0.2667E+02
  -4.950  0.4300E+01  0.2672E+02
  -4.940  0.6002E+01  0.2677E+02
  -4.930  0.4381E+01  0.2682E+02
  -4.920  0.3459E+01  0.2686E+02
  -4.910  0.3246E+01  0.2689E+02
  -4.900  0.3021E+01  0.2692E+02
  -4.890  0.2856E+01  0.2695E+02
  -4.880  0.2520E+01  0.2698E+02
  -4.870  0.2155E+01  0.2700E+02
  -4.860  0.7770E+00  0.2702E+02
  -4.850  0.7736E+00  0.2703E+02
  -4.840  0.7702E+00  0.2704E+02
  -4.830  0.7668E+00  0.2704E+02
  -4.820  0.7633E+00  0.2705E+02
  -4.810  0.7598E+00  0.2706E+02
  -4.800  0.7563E+00  0.2707E+02
  -4.790  0.7528E+00  0.2708E+02
  -4.780  0.7495E+00  0.2708E+02
  -4.770  0.7460E+00  0.2709E+02
  -4.760  0.7425E+00  0.2710E+02
  -4.750  0.7390E+00  0.2711E+02
  -4.740  0.7351E+00  0.2711E+02
  -4.730  0.7326E+00  0.2712E+02
  -4.720  0.7296E+00  0.2713E+02
  -4.710  0.7272E+00  0.2713E+02
  -4.700  0.7249E+00  0.2714E+02
  -4.690  0.7225E+00  0.2715E+02
  -4.680  0.7202E+00  0.2716E+02
  -4.670  0.7179E+00  0.2716E+02
  -4.660  0.7160E+00  0.2717E+02
  -4.650  0.7141E+00  0.2718E+02
  -4.640  0.7123E+00  0.2718E+02
  -4.630  0.7103E+00  0.2719E+02
  -4.620  0.7083E+00  0.2720E+02
  -4.610  0.7063E+00  0.2721E+02
  -4.600  0.7043E+00  0.2721E+02
  -4.590  0.7014E+00  0.2722E+02
  -4.580  0.6992E+00  0.2723E+02
  -4.570  0.6981E+00  0.2723E+02
  -4.560  0.2005E+01  0.2725E+02
  -4.550  0.1918E+01  0.2727E+02
  -4.540  0.1589E+01  0.2728E+02
  -4.530  0.1439E+01  0.2730E+02
  -4.520  0.1461E+01  0.2731E+02
  -4.510  0.1480E+01  0.2733E+02
  -4.500  0.1312E+01  0.2734E+02
  -4.490  0.1254E+01  0.2736E+02
  -4.480  0.1261E+01  0.2737E+02
  -4.470  0.1280E+01  0.2738E+02
  -4.460  0.1299E+01  0.2739E+02
  -4.450  0.1318E+01  0.2741E+02
  -4.440  0.3802E+01  0.2742E+02
  -4.430  0.4425E+01  0.2747E+02
  -4.420  0.4824E+01  0.2751E+02
  -4.410  0.5797E+01  0.2757E+02
  -4.400  0.4522E+01  0.2762E+02
  -4.390  0.3506E+01  0.2766E+02
  -4.380  0.3277E+01  0.2769E+02
  -4.370  0.3221E+01  0.2773E+02
  -4.360  0.3185E+01  0.2776E+02
  -4.350  0.3015E+01  0.2779E+02
  -4.340  0.3457E+01  0.2783E+02
  -4.330  0.3437E+01  0.2786E+02
  -4.320  0.3571E+01  0.2789E+02
  -4.310  0.3708E+01  0.2793E+02
  -4.300  0.3968E+01  0.2797E+02
  -4.290  0.4216E+01  0.2801E+02
  -4.280  0.5318E+01  0.2806E+02
  -4.270  0.4594E+01  0.2811E+02
  -4.260  0.3223E+01  0.2815E+02
  -4.250  0.2985E+01  0.2818E+02
  -4.240  0.2723E+01  0.2821E+02
  -4.230  0.2714E+01  0.2823E+02
  -4.220  0.2702E+01  0.2826E+02
  -4.210  0.2690E+01  0.2829E+02
  -4.200  0.2651E+01  0.2832E+02
  -4.190  0.2598E+01  0.2834E+02
  -4.180  0.2584E+01  0.2837E+02
  -4.170  0.2572E+01  0.2839E+02
  -4.160  0.2559E+01  0.2842E+02
  -4.150  0.2543E+01  0.2844E+02
  -4.140  0.2421E+01  0.2847E+02
  -4.130  0.2398E+01  0.2849E+02
  -4.120  0.2398E+01  0.2852E+02
  -4.110  0.2399E+01  0.2854E+02
  -4.100  0.2389E+01  0.2857E+02
  -4.090  0.2381E+01  0.2859E+02
  -4.080  0.2373E+01  0.2861E+02
  -4.070  0.2367E+01  0.2864E+02
  -4.060  0.2365E+01  0.2866E+02
  -4.050  0.2361E+01  0.2868E+02
  -4.040  0.2356E+01  0.2871E+02
  -4.030  0.2357E+01  0.2873E+02
  -4.020  0.2359E+01  0.2875E+02
  -4.010  0.2403E+01  0.2878E+02
  -4.000  0.2406E+01  0.2880E+02
  -3.990  0.2409E+01  0.2883E+02
  -3.980  0.2409E+01  0.2885E+02
  -3.970  0.2409E+01  0.2887E+02
  -3.960  0.2408E+01  0.2890E+02
  -3.950  0.2466E+01  0.2892E+02
  -3.940  0.2491E+01  0.2895E+02
  -3.930  0.2505E+01  0.2897E+02
  -3.920  0.2514E+01  0.2900E+02
  -3.910  0.2517E+01  0.2902E+02
  -3.900  0.2707E+01  0.2905E+02
  -3.890  0.2777E+01  0.2908E+02
  -3.880  0.2824E+01  0.2911E+02
  -3.870  0.3620E+01  0.2914E+02
  -3.860  0.2930E+01  0.2917E+02
  -3.850  0.2751E+01  0.2920E+02
  -3.840  0.2493E+01  0.2923E+02
  -3.830  0.2415E+01  0.2925E+02
  -3.820  0.2254E+01  0.2927E+02
  -3.810  0.2211E+01  0.2930E+02
  -3.800  0.2169E+01  0.2932E+02
  -3.790  0.2126E+01  0.2934E+02
  -3.780  0.2035E+01  0.2936E+02
  -3.770  0.2008E+01  0.2938E+02
  -3.760  0.1982E+01  0.2940E+02
  -3.750  0.1958E+01  0.2942E+02
  -3.740  0.1891E+01  0.2944E+02
  -3.730  0.1872E+01  0.2946E+02
  -3.720  0.1852E+01  0.2948E+02
  -3.710  0.1825E+01  0.2950E+02
  -3.700  0.1804E+01  0.2951E+02
  -3.690  0.1783E+01  0.2953E+02
  -3.680  0.1741E+01  0.2955E+02
  -3.670  0.1733E+01  0.2957E+02
  -3.660  0.1722E+01  0.2958E+02
  -3.650  0.1719E+01  0.2960E+02
  -3.640  0.1705E+01  0.2962E+02
  -3.630  0.1694E+01  0.2963E+02
  -3.620  0.1659E+01  0.2965E+02
  -3.610  0.1647E+01  0.2967E+02
  -3.600  0.1634E+01  0.2968E+02
  -3.590  0.1627E+01  0.2970E+02
  -3.580  0.1626E+01  0.2972E+02
  -3.570  0.1620E+01  0.2973E+02
  -3.560  0.1594E+01  0.2975E+02
  -3.550  0.1577E+01  0.2977E+02
  -3.540  0.1572E+01  0.2978E+02
  -3.530  0.1554E+01  0.2980E+02
  -3.520  0.1556E+01  0.2981E+02
  -3.510  0.1453E+01  0.2983E+02
  -3.500  0.1418E+01  0.2984E+02
  -3.490  0.1414E+01  0.2986E+02
  -3.480  0.1412E+01  0.2987E+02
  -3.470  0.1416E+01  0.2988E+02
  -3.460  0.1439E+01  0.2990E+02
  -3.450  0.1434E+01  0.2991E+02
  -3.440  0.1429E+01  0.2993E+02
  -3.430  0.1424E+01  0.2994E+02
  -3.420  0.1422E+01  0.2996E+02
  -3.410  0.1419E+01  0.2997E+02
  -3.400  0.1428E+01  0.2998E+02
  -3.390  0.1460E+01  0.3000E+02
  -3.380  0.2224E+01  0.3002E+02
  -3.370  0.2032E+01  0.3004E+02
  -3.360  0.2106E+01  0.3006E+02
  -3.350  0.2144E+01  0.3008E+02
  -3.340  0.2198E+01  0.3010E+02
  -3.330  0.2237E+01  0.3012E+02
  -3.320  0.2294E+01  0.3015E+02
  -3.310  0.2413E+01  0.3017E+02
  -3.300  0.2494E+01  0.3019E+02
  -3.290  0.2511E+01  0.3022E+02
  -3.280  0.2712E+01  0.3025E+02
  -3.270  0.2630E+01  0.3027E+02
  -3.260  0.2841E+01  0.3030E+02
  -3.250  0.6163E+01  0.3034E+02
  -3.240  0.5800E+01  0.3040E+02
  -3.230  0.5694E+01  0.3045E+02
  -3.220  0.6215E+01  0.3051E+02
  -3.210  0.7488E+01  0.3058E+02
  -3.200  0.7217E+01  0.3066E+02
  -3.190  0.6252E+01  0.3073E+02
  -3.180  0.5776E+01  0.3079E+02
  -3.170  0.5505E+01  0.3084E+02
  -3.160  0.5298E+01  0.3090E+02
  -3.150  0.5235E+01  0.3095E+02
  -3.140  0.5433E+01  0.3100E+02
  -3.130  0.6568E+01  0.3106E+02
  -3.120  0.8163E+01  0.3114E+02
  -3.110  0.5590E+01  0.3120E+02
  -3.100  0.2567E+01  0.3124E+02
  -3.090  0.2536E+01  0.3126E+02
  -3.080  0.2468E+01  0.3129E+02
  -3.070  0.2431E+01  0.3131E+02
  -3.060  0.2395E+01  0.3134E+02
  -3.050  0.2369E+01  0.3136E+02
  -3.040  0.2332E+01  0.3138E+02
  -3.030  0.2287E+01  0.3141E+02
  -3.020  0.2267E+01  0.3143E+02
  -3.010  0.2247E+01  0.3145E+02
  -3.000  0.2235E+01  0.3147E+02
  -2.990  0.2224E+01  0.3150E+02
  -2.980  0.2289E+01  0.3152E+02
  -2.970  0.2458E+01  0.3154E+02
  -2.960  0.2481E+01  0.3157E+02
  -2.950  0.2225E+01  0.3159E+02
  -2.940  0.2130E+01  0.3161E+02
  -2.930  0.2139E+01  0.3163E+02
  -2.920  0.2140E+01  0.3166E+02
  -2.910  0.2117E+01  0.3168E+02
  -2.900  0.2093E+01  0.3170E+02
  -2.890  0.2040E+01  0.3172E+02
  -2.880  0.1997E+01  0.3174E+02
  -2.870  0.1995E+01  0.3176E+02
  -2.860  0.1989E+01  0.3178E+02
  -2.850  0.1983E+01  0.3180E+02
  -2.840  0.1986E+01  0.3182E+02
  -2.830  0.1983E+01  0.3184E+02
  -2.820  0.1981E+01  0.3186E+02
  -2.810  0.1979E+01  0.3188E+02
  -2.800  0.1973E+01  0.3190E+02
  -2.790  0.1982E+01  0.3192E+02
  -2.780  0.2003E+01  0.3194E+02
  -2.770  0.2022E+01  0.3196E+02
  -2.760  0.2041E+01  0.3198E+02
  -2.750  0.2060E+01  0.3200E+02
  -2.740  0.2075E+01  0.3202E+02
  -2.730  0.2057E+01  0.3204E+02
  -2.720  0.2040E+01  0.3206E+02
  -2.710  0.2096E+01  0.3208E+02
  -2.700  0.2150E+01  0.3210E+02
  -2.690  0.2151E+01  0.3212E+02
  -2.680  0.2149E+01  0.3214E+02
  -2.670  0.2155E+01  0.3217E+02
  -2.660  0.2184E+01  0.3219E+02
  -2.650  0.2196E+01  0.3221E+02
  -2.640  0.2202E+01  0.3223E+02
  -2.630  0.2208E+01  0.3225E+02
  -2.620  0.2219E+01  0.3228E+02
  -2.610  0.2299E+01  0.3230E+02
  -2.600  0.2456E+01  0.3232E+02
  -2.590  0.2484E+01  0.3235E+02
  -2.580  0.2532E+01  0.3237E+02
  -2.570  0.2582E+01  0.3240E+02
  -2.560  0.2873E+01  0.3243E+02
  -2.550  0.3042E+01  0.3245E+02
  -2.540  0.3464E+01  0.3249E+02
  -2.530  0.4442E+01  0.3253E+02
  -2.520  0.3119E+01  0.3257E+02
  -2.510  0.2686E+01  0.3260E+02
  -2.500  0.2108E+01  0.3262E+02
  -2.490  0.2111E+01  0.3264E+02
  -2.480  0.2093E+01  0.3266E+02
  -2.470  0.1991E+01  0.3268E+02
  -2.460  0.1884E+01  0.3270E+02
  -2.450  0.1744E+01  0.3272E+02
  -2.440  0.1735E+01  0.3274E+02
  -2.430  0.1717E+01  0.3276E+02
  -2.420  0.1712E+01  0.3277E+02
  -2.410  0.1704E+01  0.3279E+02
  -2.400  0.1695E+01  0.3281E+02
  -2.390  0.1636E+01  0.3282E+02
  -2.380  0.1585E+01  0.3284E+02
  -2.370  0.1560E+01  0.3286E+02
  -2.360  0.1559E+01  0.3287E+02
  -2.350  0.1564E+01  0.3289E+02
  -2.340  0.1555E+01  0.3290E+02
  -2.330  0.1546E+01  0.3292E+02
  -2.320  0.1522E+01  0.3293E+02
  -2.310  0.1530E+01  0.3295E+02
  -2.300  0.1536E+01  0.3296E+02
  -2.290  0.1540E+01  0.3298E+02
  -2.280  0.1544E+01  0.3299E+02
  -2.270  0.1561E+01  0.3301E+02
  -2.260  0.1551E+01  0.3303E+02
  -2.250  0.1541E+01  0.3304E+02
  -2.240  0.1550E+01  0.3306E+02
  -2.230  0.1569E+01  0.3307E+02
  -2.220  0.1630E+01  0.3309E+02
  -2.210  0.1660E+01  0.3310E+02
  -2.200  0.1681E+01  0.3312E+02
  -2.190  0.1704E+01  0.3314E+02
  -2.180  0.1770E+01  0.3316E+02
  -2.170  0.1809E+01  0.3317E+02
  -2.160  0.1840E+01  0.3319E+02
  -2.150  0.1866E+01  0.3321E+02
  -2.140  0.1888E+01  0.3323E+02
  -2.130  0.1906E+01  0.3325E+02
  -2.120  0.2150E+01  0.3327E+02
  -2.110  0.2408E+01  0.3329E+02
  -2.100  0.2608E+01  0.3332E+02
  -2.090  0.2740E+01  0.3334E+02
  -2.080  0.2646E+01  0.3337E+02
  -2.070  0.2565E+01  0.3340E+02
  -2.060  0.3231E+01  0.3343E+02
  -2.050  0.5053E+01  0.3347E+02
  -2.040  0.3034E+01  0.3351E+02
  -2.030  0.2971E+01  0.3354E+02
  -2.020  0.2895E+01  0.3357E+02
  -2.010  0.2489E+01  0.3360E+02
  -2.000  0.2386E+01  0.3362E+02
  -1.990  0.2320E+01  0.3365E+02
  -1.980  0.2213E+01  0.3367E+02
  -1.970  0.2092E+01  0.3369E+02
  -1.960  0.1959E+01  0.3371E+02
  -1.950  0.1844E+01  0.3373E+02
  -1.940  0.1762E+01  0.3375E+02
  -1.930  0.1691E+01  0.3376E+02
  -1.920  0.1637E+01  0.3378E+02
  -1.910  0.1541E+01  0.3380E+02
  -1.900  0.1483E+01  0.3381E+02
  -1.890  0.1415E+01  0.3383E+02
  -1.880  0.1346E+01  0.3384E+02
  -1.870  0.1290E+01  0.3385E+02
  -1.860  0.1262E+01  0.3387E+02
  -1.850  0.1204E+01  0.3388E+02
  -1.840  0.1168E+01  0.3389E+02
  -1.830  0.1081E+01  0.3390E+02
  -1.820  0.1040E+01  0.3391E+02
  -1.810  0.1013E+01  0.3392E+02
  -1.800  0.1041E+01  0.3393E+02
  -1.790  0.1069E+01  0.3394E+02
  -1.780  0.1086E+01  0.3395E+02
  -1.770  0.1106E+01  0.3397E+02
  -1.760  0.1206E+01  0.3398E+02
  -1.750  0.1236E+01  0.3399E+02
  -1.740  0.1255E+01  0.3400E+02
  -1.730  0.1257E+01  0.3401E+02
  -1.720  0.1293E+01  0.3403E+02
  -1.710  0.1348E+01  0.3404E+02
  -1.700  0.1346E+01  0.3405E+02
  -1.690  0.1355E+01  0.3407E+02
  -1.680  0.1494E+01  0.3408E+02
  -1.670  0.1020E+01  0.3409E+02
  -1.660  0.1096E+01  0.3410E+02
  -1.650  0.1155E+01  0.3412E+02
  -1.640  0.1246E+01  0.3413E+02
  -1.630  0.1313E+01  0.3414E+02
  -1.620  0.1380E+01  0.3415E+02
  -1.610  0.1479E+01  0.3417E+02
  -1.600  0.1605E+01  0.3418E+02
  -1.590  0.1764E+01  0.3420E+02
  -1.580  0.1896E+01  0.3422E+02
  -1.570  0.2013E+01  0.3424E+02
  -1.560  0.2138E+01  0.3426E+02
  -1.550  0.2351E+01  0.3428E+02
  -1.540  0.2595E+01  0.3431E+02
  -1.530  0.2819E+01  0.3433E+02
  -1.520  0.3054E+01  0.3436E+02
  -1.510  0.3333E+01  0.3439E+02
  -1.500  0.3963E+01  0.3443E+02
  -1.490  0.4646E+01  0.3447E+02
  -1.480  0.5075E+01  0.3452E+02
  -1.470  0.6042E+01  0.3458E+02
  -1.460  0.6690E+01  0.3464E+02
  -1.450  0.1327E+02  0.3476E+02
  -1.440  0.6466E+01  0.3485E+02
  -1.430  0.5592E+01  0.3491E+02
  -1.420  0.4923E+01  0.3496E+02
  -1.410  0.4484E+01  0.3501E+02
  -1.400  0.4177E+01  0.3505E+02
  -1.390  0.4016E+01  0.3509E+02
  -1.380  0.3840E+01  0.3513E+02
  -1.370  0.3625E+01  0.3517E+02
  -1.360  0.3539E+01  0.3520E+02
  -1.350  0.3467E+01  0.3524E+02
  -1.340  0.3356E+01  0.3527E+02
  -1.330  0.3326E+01  0.3530E+02
  -1.320  0.3237E+01  0.3534E+02
  -1.310  0.3180E+01  0.3537E+02
  -1.300  0.3118E+01  0.3540E+02
  -1.290  0.3112E+01  0.3543E+02
  -1.280  0.3108E+01  0.3546E+02
  -1.270  0.3146E+01  0.3549E+02
  -1.260  0.3114E+01  0.3553E+02
  -1.250  0.3147E+01  0.3556E+02
  -1.240  0.3319E+01  0.3559E+02
  -1.230  0.4917E+01  0.3563E+02
  -1.220  0.1198E+02  0.3569E+02
  -1.210  0.1552E+01  0.3574E+02
  -1.200  0.1453E+01  0.3575E+02
  -1.190  0.1373E+01  0.3576E+02
  -1.180  0.1314E+01  0.3578E+02
  -1.170  0.1208E+01  0.3579E+02
  -1.160  0.1177E+01  0.3580E+02
  -1.150  0.1128E+01  0.3581E+02
  -1.140  0.1076E+01  0.3582E+02
  -1.130  0.1001E+01  0.3584E+02
  -1.120  0.9689E+00  0.3585E+02
  -1.110  0.9341E+00  0.3585E+02
  -1.100  0.8782E+00  0.3586E+02
  -1.090  0.8263E+00  0.3587E+02
  -1.080  0.8072E+00  0.3588E+02
  -1.070  0.7797E+00  0.3589E+02
  -1.060  0.7521E+00  0.3590E+02
  -1.050  0.7005E+00  0.3590E+02
  -1.040  0.6935E+00  0.3591E+02
  -1.030  0.6717E+00  0.3592E+02
  -1.020  0.6499E+00  0.3592E+02
  -1.010  0.6223E+00  0.3593E+02
  -1.000  0.5879E+00  0.3594E+02
  -0.990  0.5731E+00  0.3594E+02
  -0.980  0.5641E+00  0.3595E+02
  -0.970  0.5658E+00  0.3595E+02
  -0.960  0.5381E+00  0.3596E+02
  -0.950  0.5086E+00  0.3596E+02
  -0.940  0.4902E+00  0.3597E+02
  -0.930  0.4717E+00  0.3597E+02
  -0.920  0.4813E+00  0.3598E+02
  -0.910  0.4794E+00  0.3598E+02
  -0.900  0.4378E+00  0.3599E+02
  -0.890  0.3956E+00  0.3599E+02
  -0.880  0.5508E+00  0.3600E+02
  -0.870  0.1011E+00  0.3600E+02
  -0.860  0.0000E+00  0.3600E+02
  -0.850  0.0000E+00  0.3600E+02
  -0.840  0.0000E+00  0.3600E+02
  -0.830  0.0000E+00  0.3600E+02
  -0.820  0.0000E+00  0.3600E+02
  -0.810  0.0000E+00  0.3600E+02
  -0.800  0.0000E+00  0.3600E+02
  -0.790  0.0000E+00  0.3600E+02
  -0.780  0.0000E+00  0.3600E+02
  -0.770  0.0000E+00  0.3600E+02
  -0.760  0.0000E+00  0.3600E+02
  -0.750  0.0000E+00  0.3600E+02
  -0.740  0.0000E+00  0.3600E+02
  -0.730  0.0000E+00  0.3600E+02
  -0.720  0.0000E+00  0.3600E+02
  -0.710  0.0000E+00  0.3600E+02
  -0.700  0.0000E+00  0.3600E+02
  -0.690  0.0000E+00  0.3600E+02
  -0.680  0.0000E+00  0.3600E+02
  -0.670  0.0000E+00  0.3600E+02
  -0.660  0.0000E+00  0.3600E+02
  -0.650  0.0000E+00  0.3600E+02
  -0.640  0.0000E+00  0.3600E+02
  -0.630  0.0000E+00  0.3600E+02
  -0.620  0.0000E+00  0.3600E+02
  -0.610  0.0000E+00  0.3600E+02
  -0.600  0.0000E+00  0.3600E+02
  -0.590  0.0000E+00  0.3600E+02
  -0.580  0.0000E+00  0.3600E+02
  -0.570  0.0000E+00  0.3600E+02
  -0.560  0.0000E+00  0.3600E+02
  -0.550  0.0000E+00  0.3600E+02
  -0.540  0.0000E+00  0.3600E+02
  -0.530  0.0000E+00  0.3600E+02
  -0.520  0.0000E+00  0.3600E+02
  -0.510  0.0000E+00  0.3600E+02
  -0.500  0.0000E+00  0.3600E+02
  -0.490  0.0000E+00  0.3600E+02
  -0.480  0.0000E+00  0.3600E+02
  -0.470  0.0000E+00  0.3600E+02
  -0.460  0.0000E+00  0.3600E+02
  -0.450  0.0000E+00  0.3600E+02
  -0.440  0.0000E+00  0.3600E+02
  -0.430  0.0000E+00  0.3600E+02
  -0.420  0.0000E+00  0.3600E+02
  -0.410  0.0000E+00  0.3600E+02
  -0.400  0.0000E+00  0.3600E+02
  -0.390  0.0000E+00  0.3600E+02
  -0.380  0.0000E+00  0.3600E+02
  -0.370  0.0000E+00  0.3600E+02
  -0.360  0.0000E+00  0.3600E+02
  -0.350  0.0000E+00  0.3600E+02
  -0.340  0.0000E+00  0.3600E+02
  -0.330  0.0000E+00  0.3600E+02
  -0.320  0.0000E+00  0.3600E+02
  -0.310  0.0000E+00  0.3600E+02
  -0.300  0.0000E+00  0.3600E+02
  -0.290  0.0000E+00  0.3600E+02
  -0.280  0.0000E+00  0.3600E+02
  -0.270  0.0000E+00  0.3600E+02
  -0.260  0.0000E+00  0.3600E+02
  -0.250  0.0000E+00  0.3600E+02
  -0.240  0.0000E+00  0.3600E+02
  -0.230  0.0000E+00  0.3600E+02
  -0.220  0.0000E+00  0.3600E+02
  -0.210  0.0000E+00  0.3600E+02
  -0.200  0.0000E+00  0.3600E+02
  -0.190  0.0000E+00  0.3600E+02
  -0.180  0.0000E+00  0.3600E+02
  -0.170  0.0000E+00  0.3600E+02
  -0.160  0.0000E+00  0.3600E+02
  -0.150  0.0000E+00  0.3600E+02
  -0.140  0.0000E+00  0.3600E+02
  -0.130  0.0000E+00  0.3600E+02
  -0.120  0.0000E+00  0.3600E+02
  -0.110  0.0000E+00  0.3600E+02
  -0.100  0.0000E+00  0.3600E+02
  -0.090  0.0000E+00  0.3600E+02
  -0.080  0.0000E+00  0.3600E+02
  -0.070  0.0000E+00  0.3600E+02
  -0.060  0.0000E+00  0.3600E+02
  -0.050  0.0000E+00  0.3600E+02
  -0.040  0.0000E+00  0.3600E+02
  -0.030  0.0000E+00  0.3600E+02
  -0.020  0.0000E+00  0.3600E+02
  -0.010  0.0000E+00  0.3600E+02
   0.000  0.0000E+00  0.3600E+02
   0.010  0.0000E+00  0.3600E+02
   0.020  0.0000E+00  0.3600E+02
   0.030  0.0000E+00  0.3600E+02
   0.040  0.0000E+00  0.3600E+02
   0.050  0.0000E+00  0.3600E+02
   0.060  0.0000E+00  0.3600E+02
   0.070  0.0000E+00  0.3600E+02
   0.080  0.0000E+00  0.3600E+02
   0.090  0.0000E+00  0.3600E+02
   0.100  0.0000E+00  0.3600E+02
   0.110  0.0000E+00  0.3600E+02
   0.120  0.0000E+00  0.3600E+02
   0.130  0.0000E+00  0.3600E+02
   0.140  0.0000E+00  0.3600E+02
   0.150  0.0000E+00  0.3600E+02
   0.160  0.0000E+00  0.3600E+02
   0.170  0.0000E+00  0.3600E+02
   0.180  0.0000E+00  0.3600E+02
   0.190  0.0000E+00  0.3600E+02
   0.200  0.0000E+00  0.3600E+02
   0.210  0.0000E+00  0.3600E+02
   0.220  0.0000E+00  0.3600E+02
   0.230  0.0000E+00  0.3600E+02
   0.240  0.0000E+00  0.3600E+02
   0.250  0.0000E+00  0.3600E+02
   0.260  0.0000E+00  0.3600E+02
   0.270  0.0000E+00  0.3600E+02
   0.280  0.0000E+00  0.3600E+02
   0.290  0.0000E+00  0.3600E+02
   0.300  0.0000E+00  0.3600E+02
   0.310  0.0000E+00  0.3600E+02
   0.320  0.0000E+00  0.3600E+02
   0.330  0.0000E+00  0.3600E+02
   0.340  0.0000E+00  0.3600E+02
   0.350  0.0000E+00  0.3600E+02
   0.360  0.0000E+00  0.3600E+02
   0.370  0.0000E+00  0.3600E+02
   0.380  0.0000E+00  0.3600E+02
   0.390  0.0000E+00  0.3600E+02
   0.400  0.0000E+00  0.3600E+02
   0.410  0.0000E+00  0.3600E+02
   0.420  0.0000E+00  0.3600E+02
   0.430  0.0000E+00  0.3600E+02
   0.440  0.0000E+00  0.3600E+02
   0.450  0.0000E+00  0.3600E+02
   0.460  0.0000E+00  0.3600E+02
   0.470  0.0000E+00  0.3600E+02
   0.480  0.0000E+00  0.3600E+02
   0.490  0.0000E+00  0.3600E+02
   0.500  0.0000E+00  0.3600E+02
   0.510  0.0000E+00  0.3600E+02
   0.520  0.0000E+00  0.3600E+02
   0.530  0.0000E+00  0.3600E+02
   0.540  0.0000E+00  0.3600E+02
   0.550  0.0000E+00  0.3600E+02
   0.560  0.0000E+00  0.3600E+02
   0.570  0.0000E+00  0.3600E+02
   0.580  0.0000E+00  0.3600E+02
   0.590  0.0000E+00  0.3600E+02
   0.600  0.0000E+00  0.3600E+02
   0.610  0.0000E+00  0.3600E+02
   0.620  0.0000E+00  0.3600E+02
   0.630  0.0000E+00  0.3600E+02
   0.640  0.0000E+00  0.3600E+02
   0.650  0.0000E+00  0.3600E+02
   0.660  0.0000E+00  0.3600E+02
   0.670  0.0000E+00  0.3600E+02
   0.680  0.0000E+00  0.3600E+02
   0.690  0.0000E+00  0.3600E+02
   0.700  0.0000E+00  0.3600E+02
   0.710  0.0000E+00  0.3600E+02
   0.720  0.1370E+01  0.3601E+02
   0.730  0.1358E+01  0.3602E+02
   0.740  0.1396E+01  0.3604E+02
   0.750  0.1444E+01  0.3605E+02
   0.760  0.1400E+01  0.3606E+02
   0.770  0.1457E+01  0.3608E+02
   0.780  0.1481E+01  0.3609E+02
   0.790  0.1540E+01  0.3611E+02
   0.800  0.1540E+01  0.3612E+02
   0.810  0.1584E+01  0.3614E+02
   0.820  0.1624E+01  0.3616E+02
   0.830  0.1639E+01  0.3617E+02
   0.840  0.1666E+01  0.3619E+02
   0.850  0.1753E+01  0.3620E+02
   0.860  0.1845E+01  0.3622E+02
   0.870  0.1875E+01  0.3624E+02
   0.880  0.1896E+01  0.3626E+02
   0.890  0.2035E+01  0.3628E+02
   0.900  0.2142E+01  0.3630E+02
   0.910  0.2196E+01  0.3632E+02
   0.920  0.2256E+01  0.3634E+02
   0.930  0.2678E+01  0.3637E+02
   0.940  0.3573E+01  0.3640E+02
   0.950  0.3056E+01  0.3644E+02
   0.960  0.2464E+01  0.3646E+02
   0.970  0.2298E+01  0.3649E+02
   0.980  0.2146E+01  0.3651E+02
   0.990  0.2055E+01  0.3653E+02
   1.000  0.1953E+01  0.3655E+02
   1.010  0.1836E+01  0.3657E+02
   1.020  0.1799E+01  0.3659E+02
   1.030  0.1762E+01  0.3661E+02
   1.040  0.1729E+01  0.3662E+02
   1.050  0.1697E+01  0.3664E+02
   1.060  0.1652E+01  0.3666E+02
   1.070  0.1610E+01  0.3667E+02
   1.080  0.1553E+01  0.3669E+02
   1.090  0.1508E+01  0.3670E+02
   1.100  0.1495E+01  0.3672E+02
   1.110  0.1483E+01  0.3673E+02
   1.120  0.1471E+01  0.3675E+02
   1.130  0.1459E+01  0.3676E+02
   1.140  0.1447E+01  0.3678E+02
   1.150  0.1433E+01  0.3679E+02
   1.160  0.1426E+01  0.3681E+02
   1.170  0.1413E+01  0.3682E+02
   1.180  0.1384E+01  0.3684E+02
   1.190  0.1366E+01  0.3685E+02
   1.200  0.1350E+01  0.3686E+02
   1.210  0.1347E+01  0.3688E+02
   1.220  0.1344E+01  0.3689E+02
   1.230  0.1340E+01  0.3690E+02
   1.240  0.1336E+01  0.3692E+02
   1.250  0.1332E+01  0.3693E+02
   1.260  0.1352E+01  0.3694E+02
   1.270  0.1357E+01  0.3696E+02
   1.280  0.1359E+01  0.3697E+02
   1.290  0.1381E+01  0.3698E+02
   1.300  0.1808E+01  0.3700E+02
   1.310  0.1741E+01  0.3702E+02
   1.320  0.1786E+01  0.3704E+02
   1.330  0.1826E+01  0.3705E+02
   1.340  0.1921E+01  0.3707E+02
   1.350  0.1956E+01  0.3709E+02
   1.360  0.2000E+01  0.3711E+02
   1.370  0.2033E+01  0.3713E+02
   1.380  0.2178E+01  0.3715E+02
   1.390  0.2458E+01  0.3718E+02
   1.400  0.2886E+01  0.3720E+02
   1.410  0.2584E+01  0.3723E+02
   1.420  0.2324E+01  0.3726E+02
   1.430  0.2157E+01  0.3728E+02
   1.440  0.1973E+01  0.3730E+02
   1.450  0.1888E+01  0.3732E+02
   1.460  0.1791E+01  0.3734E+02
   1.470  0.1736E+01  0.3736E+02
   1.480  0.1677E+01  0.3737E+02
   1.490  0.1598E+01  0.3739E+02
   1.500  0.1563E+01  0.3740E+02
   1.510  0.1527E+01  0.3742E+02
   1.520  0.1490E+01  0.3744E+02
   1.530  0.1452E+01  0.3745E+02
   1.540  0.1424E+01  0.3746E+02
   1.550  0.1395E+01  0.3748E+02
   1.560  0.1362E+01  0.3749E+02
   1.570  0.1336E+01  0.3751E+02
   1.580  0.1313E+01  0.3752E+02
   1.590  0.1290E+01  0.3753E+02
   1.600  0.1264E+01  0.3754E+02
   1.610  0.1245E+01  0.3756E+02
   1.620  0.1227E+01  0.3757E+02
   1.630  0.1208E+01  0.3758E+02
   1.640  0.1188E+01  0.3759E+02
   1.650  0.1172E+01  0.3761E+02
   1.660  0.1150E+01  0.3762E+02
   1.670  0.1125E+01  0.3763E+02
   1.680  0.1109E+01  0.3764E+02
   1.690  0.1094E+01  0.3765E+02
   1.700  0.1082E+01  0.3766E+02
   1.710  0.1070E+01  0.3767E+02
   1.720  0.2007E+01  0.3768E+02
   1.730  0.8807E+01  0.3774E+02
   1.740  0.7019E+01  0.3784E+02
   1.750  0.5795E+01  0.3791E+02
   1.760  0.4786E+01  0.3796E+02
   1.770  0.4157E+01  0.3800E+02
   1.780  0.3965E+01  0.3804E+02
   1.790  0.3713E+01  0.3808E+02
   1.800  0.3441E+01  0.3812E+02
   1.810  0.3373E+01  0.3815E+02
   1.820  0.3303E+01  0.3819E+02
   1.830  0.3152E+01  0.3822E+02
   1.840  0.3058E+01  0.3825E+02
   1.850  0.2933E+01  0.3828E+02
   1.860  0.2845E+01  0.3831E+02
   1.870  0.2806E+01  0.3834E+02
   1.880  0.2767E+01  0.3836E+02
   1.890  0.2707E+01  0.3839E+02
   1.900  0.2626E+01  0.3842E+02
   1.910  0.2590E+01  0.3844E+02
   1.920  0.2514E+01  0.3847E+02
   1.930  0.2542E+01  0.3849E+02
   1.940  0.2486E+01  0.3852E+02
   1.950  0.2434E+01  0.3854E+02
   1.960  0.2398E+01  0.3857E+02
   1.970  0.2361E+01  0.3859E+02
   1.980  0.2327E+01  0.3862E+02
   1.990  0.2581E+01  0.3864E+02
   2.000  0.2814E+01  0.3867E+02
   2.010  0.2883E+01  0.3870E+02
   2.020  0.4793E+01  0.3874E+02
   2.030  0.4468E+01  0.3878E+02
   2.040  0.4694E+01  0.3883E+02
   2.050  0.4868E+01  0.3888E+02
   2.060  0.4796E+01  0.3892E+02
   2.070  0.5097E+01  0.3897E+02
   2.080  0.5429E+01  0.3903E+02
   2.090  0.5914E+01  0.3909E+02
   2.100  0.5177E+01  0.3914E+02
   2.110  0.4613E+01  0.3919E+02
   2.120  0.4492E+01  0.3924E+02
   2.130  0.4386E+01  0.3928E+02
   2.140  0.4270E+01  0.3932E+02
   2.150  0.4224E+01  0.3937E+02
   2.160  0.4241E+01  0.3941E+02
   2.170  0.4207E+01  0.3945E+02
   2.180  0.4199E+01  0.3949E+02
   2.190  0.4364E+01  0.3954E+02
   2.200  0.4400E+01  0.3958E+02
   2.210  0.4322E+01  0.3962E+02
   2.220  0.4272E+01  0.3967E+02
   2.230  0.4130E+01  0.3971E+02
   2.240  0.4134E+01  0.3975E+02
   2.250  0.4108E+01  0.3979E+02
   2.260  0.4174E+01  0.3983E+02
   2.270  0.4232E+01  0.3987E+02
   2.280  0.4220E+01  0.3992E+02
   2.290  0.4201E+01  0.3996E+02
   2.300  0.4399E+01  0.4000E+02
   2.310  0.4370E+01  0.4005E+02
   2.320  0.4265E+01  0.4009E+02
   2.330  0.4223E+01  0.4013E+02
   2.340  0.4457E+01  0.4018E+02
   2.350  0.4360E+01  0.4022E+02
   2.360  0.4837E+01  0.4027E+02
   2.370  0.3979E+01  0.4032E+02
   2.380  0.3867E+01  0.4036E+02
   2.390  0.4454E+01  0.4040E+02
   2.400  0.3905E+01  0.4044E+02
   2.410  0.3840E+01  0.4048E+02
   2.420  0.3993E+01  0.4052E+02
   2.430  0.3758E+01  0.4056E+02
   2.440  0.3607E+01  0.4060E+02
   2.450  0.3526E+01  0.4063E+02
   2.460  0.3466E+01  0.4067E+02
   2.470  0.3844E+01  0.4070E+02
   2.480  0.3809E+01  0.4074E+02
   2.490  0.4240E+01  0.4078E+02
   2.500  0.3861E+01  0.4082E+02
   2.510  0.3895E+01  0.4086E+02
   2.520  0.1606E+01  0.4090E+02
   2.530  0.1607E+01  0.4092E+02
   2.540  0.1611E+01  0.4093E+02
   2.550  0.1626E+01  0.4095E+02
   2.560  0.1638E+01  0.4097E+02
   2.570  0.1650E+01  0.4098E+02
   2.580  0.1710E+01  0.4100E+02
   2.590  0.1783E+01  0.4102E+02
   2.600  0.1802E+01  0.4104E+02
   2.610  0.1821E+01  0.4105E+02
   2.620  0.1844E+01  0.4107E+02
   2.630  0.1867E+01  0.4109E+02
   2.640  0.1890E+01  0.4111E+02
   2.650  0.2140E+01  0.4113E+02
   2.660  0.2181E+01  0.4115E+02
   2.670  0.2225E+01  0.4117E+02
   2.680  0.2263E+01  0.4120E+02
   2.690  0.2454E+01  0.4122E+02
   2.700  0.2709E+01  0.4125E+02
   2.710  0.2787E+01  0.4127E+02
   2.720  0.2865E+01  0.4130E+02
   2.730  0.3211E+01  0.4133E+02
   2.740  0.3378E+01  0.4136E+02
   2.750  0.3557E+01  0.4140E+02
   2.760  0.3977E+01  0.4144E+02
   2.770  0.5196E+01  0.4148E+02
   2.780  0.4175E+01  0.4153E+02
   2.790  0.3551E+01  0.4157E+02
   2.800  0.3085E+01  0.4160E+02
   2.810  0.2889E+01  0.4163E+02
   2.820  0.2776E+01  0.4166E+02
   2.830  0.2620E+01  0.4169E+02
   2.840  0.2576E+01  0.4171E+02
   2.850  0.2452E+01  0.4174E+02
   2.860  0.2262E+01  0.4176E+02
   2.870  0.1491E+01  0.4178E+02
   2.880  0.1488E+01  0.4180E+02
   2.890  0.1492E+01  0.4181E+02
   2.900  0.1496E+01  0.4183E+02
   2.910  0.1504E+01  0.4184E+02
   2.920  0.1518E+01  0.4186E+02
   2.930  0.1542E+01  0.4187E+02
   2.940  0.1539E+01  0.4189E+02
   2.950  0.1543E+01  0.4190E+02
   2.960  0.1555E+01  0.4192E+02
   2.970  0.1566E+01  0.4193E+02
   2.980  0.1596E+01  0.4195E+02
   2.990  0.1626E+01  0.4197E+02
   3.000  0.1697E+01  0.4198E+02
   3.010  0.1789E+01  0.4200E+02
   3.020  0.1891E+01  0.4202E+02
   3.030  0.2150E+01  0.4204E+02
   3.040  0.4628E+01  0.4207E+02
   3.050  0.2543E+01  0.4211E+02
   3.060  0.2378E+01  0.4213E+02
   3.070  0.2257E+01  0.4216E+02
   3.080  0.1880E+01  0.4218E+02
   3.090  0.1747E+01  0.4219E+02
   3.100  0.1623E+01  0.4221E+02
   3.110  0.1586E+01  0.4223E+02
   3.120  0.1543E+01  0.4224E+02
   3.130  0.1397E+01  0.4226E+02
   3.140  0.1272E+01  0.4227E+02
   3.150  0.1178E+01  0.4228E+02
   3.160  0.1084E+01  0.4229E+02
   3.170  0.1005E+01  0.4230E+02
   3.180  0.8549E+00  0.4231E+02
   3.190  0.6214E+00  0.4232E+02
   3.200  0.6208E+00  0.4233E+02
   3.210  0.6292E+00  0.4233E+02
   3.220  0.6374E+00  0.4234E+02
   3.230  0.6456E+00  0.4235E+02
   3.240  0.6538E+00  0.4235E+02
   3.250  0.6614E+00  0.4236E+02
   3.260  0.6865E+00  0.4237E+02
   3.270  0.7101E+00  0.4237E+02
   3.280  0.7242E+00  0.4238E+02
   3.290  0.7376E+00  0.4239E+02
   3.300  0.1257E+01  0.4240E+02
   3.310  0.1205E+01  0.4241E+02
   3.320  0.1208E+01  0.4243E+02
   3.330  0.1243E+01  0.4244E+02
   3.340  0.1274E+01  0.4245E+02
   3.350  0.1337E+01  0.4246E+02
   3.360  0.1526E+01  0.4248E+02
   3.370  0.1626E+01  0.4249E+02
   3.380  0.1702E+01  0.4251E+02
   3.390  0.1778E+01  0.4253E+02
   3.400  0.1846E+01  0.4255E+02
   3.410  0.1878E+01  0.4257E+02
   3.420  0.1925E+01  0.4258E+02
   3.430  0.2062E+01  0.4260E+02
   3.440  0.2182E+01  0.4263E+02
   3.450  0.2274E+01  0.4265E+02
   3.460  0.2343E+01  0.4267E+02
   3.470  0.2415E+01  0.4269E+02
   3.480  0.2486E+01  0.4272E+02
   3.490  0.2673E+01  0.4274E+02
   3.500  0.2848E+01  0.4277E+02
   3.510  0.2998E+01  0.4280E+02
   3.520  0.3093E+01  0.4283E+02
   3.530  0.3190E+01  0.4286E+02
   3.540  0.3600E+01  0.4290E+02
   3.550  0.3912E+01  0.4294E+02
   3.560  0.4089E+01  0.4298E+02
   3.570  0.4807E+01  0.4302E+02
   3.580  0.5899E+01  0.4307E+02
   3.590  0.5662E+01  0.4315E+02
   3.600  0.5110E+01  0.4320E+02
   3.610  0.4643E+01  0.4325E+02
   3.620  0.4117E+01  0.4329E+02
   3.630  0.3963E+01  0.4333E+02
   3.640  0.3760E+01  0.4337E+02
   3.650  0.3583E+01  0.4341E+02
   3.660  0.3536E+01  0.4344E+02
   3.670  0.3794E+01  0.4348E+02
   3.680  0.3413E+01  0.4352E+02
   3.690  0.2938E+01  0.4355E+02
   3.700  0.1959E+01  0.4357E+02
   3.710  0.1920E+01  0.4359E+02
   3.720  0.1877E+01  0.4361E+02
   3.730  0.1828E+01  0.4363E+02
   3.740  0.1784E+01  0.4365E+02
   3.750  0.1729E+01  0.4367E+02
   3.760  0.1653E+01  0.4368E+02
   3.770  0.1585E+01  0.4370E+02
   3.780  0.1546E+01  0.4371E+02
   3.790  0.1514E+01  0.4373E+02
   3.800  0.1471E+01  0.4374E+02
   3.810  0.1426E+01  0.4376E+02
   3.820  0.1367E+01  0.4377E+02
   3.830  0.1342E+01  0.4379E+02
   3.840  0.1314E+01  0.4380E+02
   3.850  0.1281E+01  0.4381E+02
   3.860  0.1287E+01  0.4383E+02
   3.870  0.1460E+01  0.4384E+02
   3.880  0.1494E+01  0.4386E+02
   3.890  0.1495E+01  0.4387E+02
   3.900  0.1446E+01  0.4388E+02
   3.910  0.1440E+01  0.4390E+02
   3.920  0.1435E+01  0.4391E+02
   3.930  0.1372E+01  0.4393E+02
   3.940  0.1359E+01  0.4394E+02
   3.950  0.1356E+01  0.4395E+02
   3.960  0.1355E+01  0.4397E+02
   3.970  0.1351E+01  0.4398E+02
   3.980  0.1315E+01  0.4400E+02
   3.990  0.1299E+01  0.4401E+02
   4.000  0.1275E+01  0.4402E+02
   4.010  0.1262E+01  0.4403E+02
   4.020  0.1270E+01  0.4405E+02
   4.030  0.1504E+01  0.4406E+02
   4.040  0.1438E+01  0.4408E+02
   4.050  0.1450E+01  0.4409E+02
   4.060  0.1466E+01  0.4410E+02
   4.070  0.1454E+01  0.4412E+02
   4.080  0.1440E+01  0.4413E+02
   4.090  0.1445E+01  0.4415E+02
   4.100  0.1439E+01  0.4416E+02
   4.110  0.1436E+01  0.4418E+02
   4.120  0.1422E+01  0.4419E+02
   4.130  0.1420E+01  0.4420E+02
   4.140  0.1418E+01  0.4422E+02
   4.150  0.1423E+01  0.4423E+02
   4.160  0.1427E+01  0.4425E+02
   4.170  0.1433E+01  0.4426E+02
   4.180  0.1430E+01  0.4428E+02
   4.190  0.1423E+01  0.4429E+02
   4.200  0.1411E+01  0.4430E+02
   4.210  0.1410E+01  0.4432E+02
   4.220  0.1411E+01  0.4433E+02
   4.230  0.1414E+01  0.4435E+02
   4.240  0.1412E+01  0.4436E+02
   4.250  0.1409E+01  0.4438E+02
   4.260  0.1407E+01  0.4439E+02
   4.270  0.1405E+01  0.4440E+02
   4.280  0.1406E+01  0.4442E+02
   4.290  0.1570E+01  0.4443E+02
   4.300  0.1880E+01  0.4445E+02
   4.310  0.1915E+01  0.4447E+02
   4.320  0.1799E+01  0.4449E+02
   4.330  0.1842E+01  0.4451E+02
   4.340  0.1881E+01  0.4452E+02
   4.350  0.1923E+01  0.4454E+02
   4.360  0.1920E+01  0.4456E+02
   4.370  0.1869E+01  0.4458E+02
   4.380  0.1865E+01  0.4460E+02
   4.390  0.1869E+01  0.4462E+02
   4.400  0.1875E+01  0.4464E+02
   4.410  0.1877E+01  0.4466E+02
   4.420  0.1892E+01  0.4467E+02
   4.430  0.1908E+01  0.4469E+02
   4.440  0.1930E+01  0.4471E+02
   4.450  0.1903E+01  0.4473E+02
   4.460  0.1902E+01  0.4475E+02
   4.470  0.1895E+01  0.4477E+02
   4.480  0.1890E+01  0.4479E+02
   4.490  0.1902E+01  0.4481E+02
   4.500  0.1909E+01  0.4483E+02
   4.510  0.1916E+01  0.4485E+02
   4.520  0.1925E+01  0.4487E+02
   4.530  0.1927E+01  0.4488E+02
   4.540  0.1930E+01  0.4490E+02
   4.550  0.1943E+01  0.4492E+02
   4.560  0.1952E+01  0.4494E+02
   4.570  0.1949E+01  0.4496E+02
   4.580  0.1938E+01  0.4498E+02
   4.590  0.1930E+01  0.4500E+02
   4.600  0.1923E+01  0.4502E+02
   4.610  0.1916E+01  0.4504E+02
   4.620  0.1910E+01  0.4506E+02
   4.630  0.1957E+01  0.4508E+02
   4.640  0.1818E+01  0.4510E+02
   4.650  0.1734E+01  0.4512E+02
   4.660  0.1747E+01  0.4513E+02
   4.670  0.1855E+01  0.4515E+02
   4.680  0.1981E+01  0.4517E+02
   4.690  0.2016E+01  0.4519E+02
   4.700  0.2039E+01  0.4521E+02
   4.710  0.2045E+01  0.4523E+02
   4.720  0.2048E+01  0.4525E+02
   4.730  0.2074E+01  0.4527E+02
   4.740  0.2099E+01  0.4529E+02
   4.750  0.2104E+01  0.4531E+02
   4.760  0.2111E+01  0.4534E+02
   4.770  0.2121E+01  0.4536E+02
   4.780  0.2137E+01  0.4538E+02
   4.790  0.2154E+01  0.4540E+02
   4.800  0.2192E+01  0.4542E+02
   4.810  0.2199E+01  0.4544E+02
   4.820  0.2215E+01  0.4547E+02
   4.830  0.2222E+01  0.4549E+02
   4.840  0.2229E+01  0.4551E+02
   4.850  0.2345E+01  0.4553E+02
   4.860  0.2468E+01  0.4556E+02
   4.870  0.2395E+01  0.4558E+02
   4.880  0.2425E+01  0.4560E+02
   4.890  0.2448E+01  0.4563E+02
   4.900  0.2468E+01  0.4565E+02
   4.910  0.2483E+01  0.4568E+02
   4.920  0.2487E+01  0.4570E+02
   4.930  0.2526E+01  0.4573E+02
   4.940  0.2558E+01  0.4575E+02
   4.950  0.2581E+01  0.4578E+02
   4.960  0.2611E+01  0.4581E+02
   4.970  0.2617E+01  0.4583E+02
   4.980  0.2629E+01  0.4586E+02
   4.990  0.2686E+01  0.4588E+02
   5.000  0.2734E+01  0.4591E+02
   5.010  0.2764E+01  0.4594E+02
   5.020  0.2795E+01  0.4597E+02
   5.030  0.2889E+01  0.4599E+02
   5.040  0.2967E+01  0.4602E+02
   5.050  0.3049E+01  0.4605E+02
   5.060  0.3130E+01  0.4609E+02
   5.070  0.3561E+01  0.4612E+02
   5.080  0.3995E+01  0.4616E+02
   5.090  0.3162E+01  0.4620E+02
   5.100  0.2824E+01  0.4623E+02
   5.110  0.2810E+01  0.4626E+02
   5.120  0.2798E+01  0.4628E+02
   5.130  0.2743E+01  0.4631E+02
   5.140  0.2681E+01  0.4634E+02
   5.150  0.2654E+01  0.4637E+02
   5.160  0.2649E+01  0.4639E+02
   5.170  0.2643E+01  0.4642E+02
   5.180  0.2640E+01  0.4645E+02
   5.190  0.2634E+01  0.4647E+02
   5.200  0.2631E+01  0.4650E+02
   5.210  0.2599E+01  0.4652E+02
   5.220  0.2608E+01  0.4655E+02
   5.230  0.2620E+01  0.4658E+02
   5.240  0.2637E+01  0.4660E+02
   5.250  0.2650E+01  0.4663E+02
   5.260  0.2665E+01  0.4666E+02
   5.270  0.2715E+01  0.4668E+02
   5.280  0.2770E+01  0.4671E+02
   5.290  0.2819E+01  0.4674E+02
   5.300  0.3063E+01  0.4677E+02
   5.310  0.2909E+01  0.4680E+02
   5.320  0.2762E+01  0.4683E+02
   5.330  0.2619E+01  0.4685E+02
   5.340  0.2634E+01  0.4688E+02
   5.350  0.2669E+01  0.4691E+02
   5.360  0.2640E+01  0.4693E+02
   5.370  0.2497E+01  0.4696E+02
   5.380  0.2500E+01  0.4698E+02
   5.390  0.2497E+01  0.4701E+02
   5.400  0.2471E+01  0.4703E+02
   5.410  0.2445E+01  0.4706E+02
   5.420  0.2420E+01  0.4708E+02
   5.430  0.2383E+01  0.4711E+02
   5.440  0.2362E+01  0.4713E+02
   5.450  0.2340E+01  0.4715E+02
   5.460  0.2324E+01  0.4718E+02
   5.470  0.2325E+01  0.4720E+02
   5.480  0.2327E+01  0.4722E+02
   5.490  0.2332E+01  0.4725E+02
   5.500  0.2332E+01  0.4727E+02
   5.510  0.2332E+01  0.4729E+02
   5.520  0.2313E+01  0.4732E+02
   5.530  0.2284E+01  0.4734E+02
   5.540  0.2258E+01  0.4736E+02
   5.550  0.2262E+01  0.4738E+02
   5.560  0.2266E+01  0.4741E+02
   5.570  0.2260E+01  0.4743E+02
   5.580  0.2249E+01  0.4745E+02
   5.590  0.2241E+01  0.4747E+02
   5.600  0.2292E+01  0.4750E+02
   5.610  0.2529E+01  0.4752E+02
   5.620  0.2410E+01  0.4754E+02
   5.630  0.2422E+01  0.4757E+02
   5.640  0.2434E+01  0.4759E+02
   5.650  0.2404E+01  0.4762E+02
   5.660  0.2387E+01  0.4764E+02
   5.670  0.2406E+01  0.4767E+02
   5.680  0.2424E+01  0.4769E+02
   5.690  0.2443E+01  0.4771E+02
   5.700  0.2462E+01  0.4774E+02
   5.710  0.2443E+01  0.4776E+02
   5.720  0.2433E+01  0.4779E+02
   5.730  0.2419E+01  0.4781E+02
   5.740  0.2418E+01  0.4784E+02
   5.750  0.2428E+01  0.4786E+02
   5.760  0.2438E+01  0.4788E+02
   5.770  0.2457E+01  0.4791E+02
   5.780  0.2520E+01  0.4793E+02
   5.790  0.2576E+01  0.4796E+02
   5.800  0.2610E+01  0.4799E+02
   5.810  0.2612E+01  0.4801E+02
   5.820  0.2616E+01  0.4804E+02
   5.830  0.2623E+01  0.4806E+02
   5.840  0.2639E+01  0.4809E+02
   5.850  0.2667E+01  0.4812E+02
   5.860  0.2707E+01  0.4814E+02
   5.870  0.2877E+01  0.4817E+02
   5.880  0.2923E+01  0.4820E+02
   5.890  0.2790E+01  0.4823E+02
   5.900  0.2727E+01  0.4826E+02
   5.910  0.2697E+01  0.4828E+02
   5.920  0.2727E+01  0.4831E+02
   5.930  0.2840E+01  0.4834E+02
   5.940  0.2825E+01  0.4837E+02
   5.950  0.2848E+01  0.4839E+02
   5.960  0.2801E+01  0.4842E+02
   5.970  0.2740E+01  0.4845E+02
   5.980  0.2686E+01  0.4848E+02
   5.990  0.2665E+01  0.4850E+02
   6.000  0.2656E+01  0.4853E+02
   6.010  0.2650E+01  0.4856E+02
   6.020  0.2759E+01  0.4858E+02
   6.030  0.2737E+01  0.4861E+02
   6.040  0.2635E+01  0.4864E+02
   6.050  0.2600E+01  0.4867E+02
   6.060  0.2673E+01  0.4869E+02
   6.070  0.2657E+01  0.4872E+02
   6.080  0.2507E+01  0.4874E+02
   6.090  0.2529E+01  0.4877E+02
   6.100  0.2563E+01  0.4879E+02
   6.110  0.2601E+01  0.4882E+02
   6.120  0.2633E+01  0.4885E+02
   6.130  0.2669E+01  0.4887E+02
   6.140  0.2718E+01  0.4890E+02
   6.150  0.2855E+01  0.4893E+02
   6.160  0.3029E+01  0.4896E+02
   6.170  0.3121E+01  0.4899E+02
   6.180  0.3119E+01  0.4902E+02
   6.190  0.4066E+01  0.4905E+02
   6.200  0.4278E+01  0.4910E+02
   6.210  0.4687E+01  0.4915E+02
   6.220  0.4246E+01  0.4919E+02
   6.230  0.3975E+01  0.4923E+02
   6.240  0.3919E+01  0.4927E+02
   6.250  0.3860E+01  0.4931E+02
   6.260  0.3609E+01  0.4935E+02
   6.270  0.3467E+01  0.4939E+02
   6.280  0.3428E+01  0.4942E+02
   6.290  0.3569E+01  0.4945E+02
   6.300  0.3731E+01  0.4949E+02
   6.310  0.3492E+01  0.4953E+02
   6.320  0.3508E+01  0.4956E+02
   6.330  0.3515E+01  0.4960E+02
   6.340  0.3537E+01  0.4963E+02
   6.350  0.3618E+01  0.4967E+02
   6.360  0.3848E+01  0.4971E+02
   6.370  0.3680E+01  0.4974E+02
   6.380  0.3828E+01  0.4978E+02
   6.390  0.3873E+01  0.4982E+02
   6.400  0.3804E+01  0.4986E+02
   6.410  0.3638E+01  0.4989E+02
   6.420  0.3660E+01  0.4993E+02
   6.430  0.4088E+01  0.4997E+02
   6.440  0.4001E+01  0.5001E+02
   6.450  0.4104E+01  0.5005E+02
   6.460  0.4043E+01  0.5009E+02
   6.470  0.4029E+01  0.5013E+02
   6.480  0.3994E+01  0.5017E+02
   6.490  0.3930E+01  0.5021E+02
   6.500  0.3912E+01  0.5025E+02
   6.510  0.3905E+01  0.5029E+02
   6.520  0.4623E+01  0.5033E+02
   6.530  0.4110E+01  0.5037E+02
   6.540  0.3979E+01  0.5042E+02
   6.550  0.3896E+01  0.5045E+02
   6.560  0.4102E+01  0.5049E+02
   6.570  0.4176E+01  0.5054E+02
   6.580  0.4124E+01  0.5058E+02
   6.590  0.3762E+01  0.5062E+02
   6.600  0.3589E+01  0.5065E+02
   6.610  0.3635E+01  0.5069E+02
   6.620  0.3745E+01  0.5073E+02
   6.630  0.3309E+01  0.5077E+02
   6.640  0.3309E+01  0.5080E+02
   6.650  0.3311E+01  0.5083E+02
   6.660  0.3313E+01  0.5087E+02
   6.670  0.3306E+01  0.5090E+02
   6.680  0.3296E+01  0.5093E+02
   6.690  0.3282E+01  0.5097E+02
   6.700  0.3250E+01  0.5100E+02
   6.710  0.3225E+01  0.5103E+02
   6.720  0.3227E+01  0.5106E+02
   6.730  0.3170E+01  0.5109E+02
   6.740  0.3159E+01  0.5113E+02
   6.750  0.3157E+01  0.5116E+02
   6.760  0.3154E+01  0.5119E+02
   6.770  0.3168E+01  0.5122E+02
   6.780  0.3183E+01  0.5125E+02
   6.790  0.3197E+01  0.5128E+02
   6.800  0.3224E+01  0.5132E+02
   6.810  0.3252E+01  0.5135E+02
   6.820  0.3282E+01  0.5138E+02
   6.830  0.3313E+01  0.5141E+02
   6.840  0.3348E+01  0.5145E+02
   6.850  0.3410E+01  0.5148E+02
   6.860  0.3643E+01  0.5152E+02
   6.870  0.3659E+01  0.5155E+02
   6.880  0.3678E+01  0.5159E+02
   6.890  0.3707E+01  0.5163E+02
   6.900  0.3862E+01  0.5166E+02
   6.910  0.3727E+01  0.5170E+02
   6.920  0.3760E+01  0.5174E+02
   6.930  0.3816E+01  0.5178E+02
   6.940  0.3828E+01  0.5182E+02
   6.950  0.3895E+01  0.5185E+02
   6.960  0.3869E+01  0.5189E+02
   6.970  0.3998E+01  0.5193E+02
   6.980  0.3969E+01  0.5197E+02
   6.990  0.3957E+01  0.5201E+02
   7.000  0.3963E+01  0.5205E+02
   7.010  0.3925E+01  0.5209E+02
   7.020  0.3894E+01  0.5213E+02
   7.030  0.4011E+01  0.5217E+02
   7.040  0.4123E+01  0.5221E+02
   7.050  0.4227E+01  0.5225E+02
   7.060  0.4134E+01  0.5229E+02
   7.070  0.4069E+01  0.5233E+02
   7.080  0.4097E+01  0.5237E+02
   7.090  0.4292E+01  0.5242E+02
   7.100  0.4326E+01  0.5246E+02
   7.110  0.4591E+01  0.5250E+02
   7.120  0.4697E+01  0.5255E+02
   7.130  0.5619E+01  0.5260E+02
   7.140  0.3380E+01  0.5264E+02
   7.150  0.3352E+01  0.5268E+02
   7.160  0.3353E+01  0.5271E+02
   7.170  0.3378E+01  0.5275E+02
   7.180  0.3400E+01  0.5278E+02
   7.190  0.3496E+01  0.5281E+02
   7.200  0.3168E+01  0.5285E+02
   7.210  0.2983E+01  0.5288E+02
   7.220  0.2816E+01  0.5291E+02
   7.230  0.2737E+01  0.5293E+02
   7.240  0.2737E+01  0.5296E+02
   7.250  0.2735E+01  0.5299E+02
   7.260  0.2732E+01  0.5302E+02
   7.270  0.2729E+01  0.5304E+02
   7.280  0.2721E+01  0.5307E+02
   7.290  0.2721E+01  0.5310E+02
   7.300  0.2722E+01  0.5313E+02
   7.310  0.2727E+01  0.5315E+02
   7.320  0.2729E+01  0.5318E+02
   7.330  0.2697E+01  0.5321E+02
   7.340  0.2817E+01  0.5323E+02
   7.350  0.3186E+01  0.5326E+02
   7.360  0.3362E+01  0.5330E+02
   7.370  0.3283E+01  0.5333E+02
   7.380  0.3307E+01  0.5336E+02
   7.390  0.3334E+01  0.5340E+02
   7.400  0.3394E+01  0.5343E+02
   7.410  0.3477E+01  0.5346E+02
   7.420  0.3819E+01  0.5350E+02
   7.430  0.3901E+01  0.5354E+02
   7.440  0.4075E+01  0.5358E+02
   7.450  0.4557E+01  0.5362E+02
   7.460  0.4361E+01  0.5367E+02
   7.470  0.4611E+01  0.5371E+02
   7.480  0.5174E+01  0.5376E+02
   7.490  0.4191E+01  0.5381E+02
   7.500  0.4100E+01  0.5385E+02
   7.510  0.4010E+01  0.5389E+02
   7.520  0.3942E+01  0.5393E+02
   7.530  0.3728E+01  0.5397E+02
   7.540  0.3706E+01  0.5401E+02
   7.550  0.3694E+01  0.5404E+02
   7.560  0.3676E+01  0.5408E+02
   7.570  0.3592E+01  0.5412E+02
   7.580  0.3574E+01  0.5415E+02
   7.590  0.3553E+01  0.5419E+02
   7.600  0.3538E+01  0.5422E+02
   7.610  0.3443E+01  0.5426E+02
   7.620  0.3433E+01  0.5429E+02
   7.630  0.3427E+01  0.5433E+02
   7.640  0.3411E+01  0.5436E+02
   7.650  0.3406E+01  0.5439E+02
   7.660  0.3417E+01  0.5443E+02
   7.670  0.3370E+01  0.5446E+02
   7.680  0.3358E+01  0.5450E+02
   7.690  0.3349E+01  0.5453E+02
   7.700  0.3341E+01  0.5456E+02
   7.710  0.3330E+01  0.5460E+02
   7.720  0.3290E+01  0.5463E+02
   7.730  0.3292E+01  0.5466E+02
   7.740  0.3296E+01  0.5470E+02
   7.750  0.3444E+01  0.5473E+02
   7.760  0.3484E+01  0.5476E+02
   7.770  0.3525E+01  0.5480E+02
   7.780  0.3539E+01  0.5484E+02
   7.790  0.3590E+01  0.5487E+02
   7.800  0.3695E+01  0.5491E+02
   7.810  0.3739E+01  0.5494E+02
   7.820  0.3756E+01  0.5498E+02
   7.830  0.3838E+01  0.5502E+02
   7.840  0.4033E+01  0.5506E+02
   7.850  0.4565E+01  0.5510E+02
   7.860  0.3922E+01  0.5514E+02
   7.870  0.3535E+01  0.5518E+02
   7.880  0.3362E+01  0.5521E+02
   7.890  0.3328E+01  0.5525E+02
   7.900  0.3312E+01  0.5528E+02
   7.910  0.3293E+01  0.5531E+02
   7.920  0.3234E+01  0.5535E+02
   7.930  0.3158E+01  0.5538E+02
   7.940  0.3117E+01  0.5541E+02
   7.950  0.3125E+01  0.5544E+02
   7.960  0.3135E+01  0.5547E+02
   7.970  0.3141E+01  0.5550E+02
   7.980  0.3135E+01  0.5554E+02
   7.990  0.3116E+01  0.5557E+02
   8.000  0.3095E+01  0.5560E+02
   8.010  0.3075E+01  0.5563E+02
   8.020  0.3074E+01  0.5566E+02
   8.030  0.3084E+01  0.5569E+02
   8.040  0.3100E+01  0.5572E+02
   8.050  0.3137E+01  0.5575E+02
   8.060  0.3222E+01  0.5578E+02
   8.070  0.3289E+01  0.5582E+02
   8.080  0.3500E+01  0.5585E+02
   8.090  0.3675E+01  0.5589E+02
   8.100  0.3954E+01  0.5592E+02
   8.110  0.4275E+01  0.5597E+02
   8.120  0.4058E+01  0.5601E+02
   8.130  0.4021E+01  0.5605E+02
   8.140  0.4044E+01  0.5609E+02
   8.150  0.3905E+01  0.5613E+02
   8.160  0.3872E+01  0.5617E+02
   8.170  0.3734E+01  0.5621E+02
   8.180  0.3672E+01  0.5624E+02
   8.190  0.3598E+01  0.5628E+02
   8.200  0.3575E+01  0.5632E+02
   8.210  0.3289E+01  0.5635E+02
   8.220  0.3246E+01  0.5638E+02
   8.230  0.3265E+01  0.5642E+02
   8.240  0.3286E+01  0.5645E+02
   8.250  0.3321E+01  0.5648E+02
   8.260  0.3373E+01  0.5651E+02
   8.270  0.3433E+01  0.5655E+02
   8.280  0.3489E+01  0.5658E+02
   8.290  0.3548E+01  0.5662E+02
   8.300  0.3604E+01  0.5665E+02
   8.310  0.3661E+01  0.5669E+02
   8.320  0.3838E+01  0.5673E+02
   8.330  0.4280E+01  0.5677E+02
   8.340  0.4070E+01  0.5681E+02
   8.350  0.3795E+01  0.5685E+02
   8.360  0.3767E+01  0.5689E+02
   8.370  0.3727E+01  0.5692E+02
   8.380  0.3774E+01  0.5696E+02
   8.390  0.5931E+01  0.5700E+02
   8.400  0.5804E+01  0.5706E+02
   8.410  0.5675E+01  0.5712E+02
   8.420  0.5735E+01  0.5718E+02
   8.430  0.5314E+01  0.5723E+02
   8.440  0.5538E+01  0.5729E+02
   8.450  0.6230E+01  0.5734E+02
   8.460  0.6636E+01  0.5741E+02
   8.470  0.7027E+01  0.5748E+02
   8.480  0.5673E+01  0.5754E+02
   8.490  0.5507E+01  0.5760E+02
   8.500  0.5332E+01  0.5766E+02
   8.510  0.5134E+01  0.5771E+02
   8.520  0.5302E+01  0.5776E+02
   8.530  0.5237E+01  0.5781E+02
   8.540  0.5098E+01  0.5786E+02
   8.550  0.5075E+01  0.5792E+02
   8.560  0.5381E+01  0.5797E+02
   8.570  0.5697E+01  0.5802E+02
   8.580  0.5712E+01  0.5808E+02
   8.590  0.5565E+01  0.5814E+02
   8.600  0.5475E+01  0.5819E+02
   8.610  0.5440E+01  0.5825E+02
   8.620  0.6166E+01  0.5831E+02
   8.630  0.6137E+01  0.5837E+02
   8.640  0.5806E+01  0.5843E+02
   8.650  0.5887E+01  0.5849E+02
   8.660  0.5744E+01  0.5854E+02
   8.670  0.5827E+01  0.5860E+02
   8.680  0.5875E+01  0.5866E+02
   8.690  0.5928E+01  0.5872E+02
   8.700  0.5995E+01  0.5878E+02
   8.710  0.5959E+01  0.5884E+02
   8.720  0.5978E+01  0.5890E+02
   8.730  0.6279E+01  0.5896E+02
   8.740  0.6389E+01  0.5902E+02
   8.750  0.6519E+01  0.5909E+02
   8.760  0.6749E+01  0.5915E+02
   8.770  0.6720E+01  0.5922E+02
   8.780  0.7268E+01  0.5929E+02
   8.790  0.6303E+01  0.5936E+02
   8.800  0.6653E+01  0.5942E+02
   8.810  0.6717E+01  0.5949E+02
   8.820  0.6671E+01  0.5956E+02
   8.830  0.6303E+01  0.5962E+02
   8.840  0.5555E+01  0.5968E+02
   8.850  0.5298E+01  0.5974E+02
   8.860  0.5097E+01  0.5979E+02
   8.870  0.5350E+01  0.5984E+02
   8.880  0.4903E+01  0.5989E+02
   8.890  0.4399E+01  0.5994E+02
   8.900  0.3853E+01  0.5998E+02
   8.910  0.3897E+01  0.6002E+02
   8.920  0.3980E+01  0.6006E+02
   8.930  0.3930E+01  0.6010E+02
   8.940  0.4132E+01  0.6014E+02
   8.950  0.4349E+01  0.6018E+02
   8.960  0.4495E+01  0.6022E+02
   8.970  0.5258E+01  0.6027E+02
   8.980  0.5152E+01  0.6032E+02
   8.990  0.4830E+01  0.6037E+02
   9.000  0.4627E+01  0.6042E+02
   9.010  0.4276E+01  0.6047E+02
   9.020  0.4028E+01  0.6051E+02
   9.030  0.3799E+01  0.6055E+02
   9.040  0.3716E+01  0.6058E+02
   9.050  0.3835E+01  0.6062E+02
   9.060  0.4876E+01  0.6066E+02
   9.070  0.3855E+01  0.6070E+02
   9.080  0.3683E+01  0.6074E+02
   9.090  0.3640E+01  0.6078E+02
   9.100  0.3677E+01  0.6082E+02
   9.110  0.3728E+01  0.6085E+02
   9.120  0.4169E+01  0.6089E+02
   9.130  0.5118E+01  0.6094E+02
   9.140  0.4759E+01  0.6099E+02
   9.150  0.4706E+01  0.6103E+02
   9.160  0.5238E+01  0.6108E+02
   9.170  0.5646E+01  0.6114E+02
   9.180  0.6926E+01  0.6120E+02
   9.190  0.7576E+01  0.6128E+02
   9.200  0.7849E+01  0.6136E+02
   9.210  0.5043E+01  0.6143E+02
   9.220  0.3147E+01  0.6147E+02
   9.230  0.3042E+01  0.6150E+02
   9.240  0.2935E+01  0.6153E+02
   9.250  0.2805E+01  0.6156E+02
   9.260  0.2730E+01  0.6159E+02
   9.270  0.2814E+01  0.6161E+02
   9.280  0.3411E+01  0.6165E+02
   9.290  0.3714E+01  0.6168E+02
   9.300  0.3692E+01  0.6172E+02
   9.310  0.3805E+01  0.6176E+02
   9.320  0.3768E+01  0.6180E+02
   9.330  0.3605E+01  0.6183E+02
   9.340  0.3624E+01  0.6187E+02
   9.350  0.3639E+01  0.6190E+02
   9.360  0.3931E+01  0.6194E+02
   9.370  0.3592E+01  0.6198E+02
   9.380  0.3607E+01  0.6202E+02
   9.390  0.3719E+01  0.6205E+02
   9.400  0.3879E+01  0.6209E+02
   9.410  0.3917E+01  0.6213E+02
   9.420  0.3957E+01  0.6217E+02
   9.430  0.3996E+01  0.6221E+02
   9.440  0.4054E+01  0.6225E+02
   9.450  0.4223E+01  0.6229E+02
   9.460  0.4830E+01  0.6234E+02
   9.470  0.5055E+01  0.6239E+02
   9.480  0.4959E+01  0.6244E+02
   9.490  0.4998E+01  0.6249E+02
   9.500  0.5069E+01  0.6254E+02
   9.510  0.9099E+01  0.6260E+02
   9.520  0.7718E+01  0.6268E+02
   9.530  0.5913E+01  0.6274E+02
   9.540  0.6499E+01  0.6281E+02
   9.550  0.6135E+01  0.6287E+02
   9.560  0.6828E+01  0.6293E+02
   9.570  0.5196E+01  0.6299E+02
   9.580  0.5160E+01  0.6305E+02
   9.590  0.5097E+01  0.6310E+02
   9.600  0.5030E+01  0.6315E+02
   9.610  0.4748E+01  0.6320E+02
   9.620  0.4666E+01  0.6324E+02
   9.630  0.4673E+01  0.6329E+02
   9.640  0.4739E+01  0.6334E+02
   9.650  0.4774E+01  0.6339E+02
   9.660  0.4935E+01  0.6343E+02
   9.670  0.5012E+01  0.6348E+02
   9.680  0.4093E+01  0.6353E+02
   9.690  0.3838E+01  0.6357E+02
   9.700  0.3323E+01  0.6360E+02
   9.710  0.3337E+01  0.6364E+02
   9.720  0.3437E+01  0.6367E+02
   9.730  0.3701E+01  0.6371E+02
   9.740  0.3629E+01  0.6374E+02
   9.750  0.3311E+01  0.6378E+02
   9.760  0.3357E+01  0.6381E+02
   9.770  0.3246E+01  0.6385E+02
   9.780  0.3142E+01  0.6388E+02
   9.790  0.3070E+01  0.6391E+02
   9.800  0.3049E+01  0.6394E+02
   9.810  0.3030E+01  0.6397E+02
   9.820  0.3020E+01  0.6400E+02
   9.830  0.3015E+01  0.6403E+02
   9.840  0.3020E+01  0.6406E+02
   9.850  0.3034E+01  0.6409E+02
   9.860  0.3046E+01  0.6412E+02
   9.870  0.3060E+01  0.6415E+02
   9.880  0.3078E+01  0.6418E+02
   9.890  0.3122E+01  0.6421E+02
   9.900  0.3149E+01  0.6424E+02
   9.910  0.3304E+01  0.6428E+02
   9.920  0.3247E+01  0.6431E+02
   9.930  0.3192E+01  0.6434E+02
   9.940  0.3179E+01  0.6437E+02
   9.950  0.3590E+01  0.6441E+02
   9.960  0.5638E+01  0.6445E+02
   9.970  0.7187E+01  0.6452E+02
   9.980  0.7113E+01  0.6459E+02
   9.990  0.9182E+01  0.6467E+02
  10.000  0.1042E+02  0.6478E+02
  10.010  0.9334E+01  0.6488E+02
  10.020  0.7133E+01  0.6496E+02
  10.030  0.6973E+01  0.6503E+02
  10.040  0.6946E+01  0.6510E+02
  10.050  0.7522E+01  0.6517E+02
  10.060  0.1049E+02  0.6526E+02
  10.070  0.7521E+01  0.6534E+02
  10.080  0.4140E+01  0.6540E+02
  10.090  0.4070E+01  0.6544E+02
  10.100  0.3950E+01  0.6548E+02
  10.110  0.3934E+01  0.6552E+02
  10.120  0.3928E+01  0.6556E+02
  10.130  0.4058E+01  0.6560E+02
  10.140  0.4316E+01  0.6564E+02
  10.150  0.4689E+01  0.6569E+02
  10.160  0.4746E+01  0.6573E+02
  10.170  0.4414E+01  0.6578E+02
  10.180  0.4388E+01  0.6582E+02
  10.190  0.4343E+01  0.6587E+02
  10.200  0.4371E+01  0.6591E+02
  10.210  0.4447E+01  0.6596E+02
  10.220  0.4480E+01  0.6600E+02
  10.230  0.4478E+01  0.6604E+02
  10.240  0.4466E+01  0.6609E+02
  10.250  0.4452E+01  0.6613E+02
  10.260  0.4494E+01  0.6618E+02
  10.270  0.4824E+01  0.6622E+02
  10.280  0.5493E+01  0.6628E+02
  10.290  0.5791E+01  0.6633E+02
  10.300  0.5333E+01  0.6639E+02
  10.310  0.5065E+01  0.6644E+02
  10.320  0.5153E+01  0.6649E+02
  10.330  0.5003E+01  0.6654E+02
  10.340  0.4801E+01  0.6659E+02
  10.350  0.4740E+01  0.6664E+02
  10.360  0.4685E+01  0.6669E+02
  10.370  0.4740E+01  0.6673E+02
  10.380  0.5297E+01  0.6678E+02
  10.390  0.5031E+01  0.6683E+02
  10.400  0.5107E+01  0.6688E+02
  10.410  0.5019E+01  0.6693E+02
  10.420  0.5095E+01  0.6698E+02
  10.430  0.5328E+01  0.6704E+02
  10.440  0.5412E+01  0.6709E+02
  10.450  0.6729E+01  0.6715E+02
  10.460  0.5624E+01  0.6720E+02
  10.470  0.5790E+01  0.6726E+02
  10.480  0.6043E+01  0.6732E+02
  10.490  0.6078E+01  0.6739E+02
  10.500  0.5728E+01  0.6744E+02
  10.510  0.5434E+01  0.6750E+02
  10.520  0.5435E+01  0.6755E+02
  10.530  0.5478E+01  0.6761E+02
  10.540  0.5578E+01  0.6766E+02
  10.550  0.5326E+01  0.6772E+02
  10.560  0.5025E+01  0.6777E+02
  10.570  0.4773E+01  0.6782E+02
  10.580  0.4686E+01  0.6787E+02
  10.590  0.4623E+01  0.6791E+02
  10.600  0.4658E+01  0.6796E+02
  10.610  0.4553E+01  0.6801E+02
  10.620  0.4297E+01  0.6805E+02
  10.630  0.4243E+01  0.6809E+02
  10.640  0.4217E+01  0.6813E+02
  10.650  0.4195E+01  0.6818E+02
  10.660  0.4220E+01  0.6822E+02
  10.670  0.4290E+01  0.6826E+02
  10.680  0.3900E+01  0.6830E+02
  10.690  0.3907E+01  0.6834E+02
  10.700  0.3917E+01  0.6838E+02
  10.710  0.3984E+01  0.6842E+02
  10.720  0.4106E+01  0.6846E+02
  10.730  0.4995E+01  0.6851E+02
  10.740  0.4776E+01  0.6855E+02
  10.750  0.4524E+01  0.6860E+02
  10.760  0.4569E+01  0.6865E+02
  10.770  0.4678E+01  0.6869E+02
  10.780  0.4865E+01  0.6874E+02
  10.790  0.5515E+01  0.6879E+02
  10.800  0.5803E+01  0.6885E+02
  10.810  0.6396E+01  0.6891E+02
  10.820  0.5840E+01  0.6898E+02
  10.830  0.6008E+01  0.6904E+02
  10.840  0.5436E+01  0.6910E+02
  10.850  0.5617E+01  0.6916E+02
  10.860  0.4864E+01  0.6921E+02
  10.870  0.4334E+01  0.6926E+02
  10.880  0.4134E+01  0.6930E+02
  10.890  0.3965E+01  0.6934E+02
  10.900  0.3865E+01  0.6938E+02
  10.910  0.3495E+01  0.6942E+02
  10.920  0.3111E+01  0.6946E+02
  10.930  0.3076E+01  0.6949E+02
  10.940  0.3154E+01  0.6952E+02
  10.950  0.3259E+01  0.6955E+02
  10.960  0.3373E+01  0.6958E+02
  10.970  0.3382E+01  0.6962E+02
  10.980  0.3446E+01  0.6965E+02
  10.990  0.3693E+01  0.6969E+02
  11.000  0.4034E+01  0.6973E+02
  11.010  0.3498E+01  0.6977E+02
  11.020  0.3489E+01  0.6981E+02
  11.030  0.3588E+01  0.6984E+02
  11.040  0.4177E+01  0.6988E+02
  11.050  0.4573E+01  0.6993E+02
  11.060  0.5247E+01  0.6997E+02
  11.070  0.5627E+01  0.7003E+02
  11.080  0.6391E+01  0.7009E+02
  11.090  0.5624E+01  0.7015E+02
  11.100  0.5764E+01  0.7021E+02
  11.110  0.5982E+01  0.7027E+02
  11.120  0.7657E+01  0.7033E+02
  11.130  0.4201E+01  0.7038E+02
  11.140  0.4510E+01  0.7042E+02
  11.150  0.5101E+01  0.7047E+02
  11.160  0.5771E+01  0.7053E+02
  11.170  0.4448E+01  0.7058E+02
  11.180  0.4494E+01  0.7063E+02
  11.190  0.4538E+01  0.7067E+02
  11.200  0.4469E+01  0.7072E+02
  11.210  0.4438E+01  0.7076E+02
  11.220  0.4210E+01  0.7081E+02
  11.230  0.3630E+01  0.7084E+02
  11.240  0.3409E+01  0.7088E+02
  11.250  0.3302E+01  0.7091E+02
  11.260  0.3262E+01  0.7095E+02
  11.270  0.3550E+01  0.7098E+02
  11.280  0.3751E+01  0.7102E+02
  11.290  0.3597E+01  0.7105E+02
  11.300  0.3412E+01  0.7109E+02
  11.310  0.3531E+01  0.7112E+02
  11.320  0.3570E+01  0.7116E+02
  11.330  0.3696E+01  0.7119E+02
  11.340  0.5971E+01  0.7124E+02
  11.350  0.6666E+01  0.7130E+02
  11.360  0.5020E+01  0.7136E+02
  11.370  0.4260E+01  0.7141E+02
  11.380  0.3858E+01  0.7145E+02
  11.390  0.4048E+01  0.7149E+02
  11.400  0.4468E+01  0.7153E+02
  11.410  0.3048E+01  0.7157E+02
  11.420  0.3015E+01  0.7160E+02
  11.430  0.2695E+01  0.7163E+02
  11.440  0.2674E+01  0.7165E+02
  11.450  0.2581E+01  0.7168E+02
  11.460  0.2344E+01  0.7170E+02
  11.470  0.1872E+01  0.7172E+02
  11.480  0.1757E+01  0.7174E+02
  11.490  0.1652E+01  0.7176E+02
  11.500  0.1559E+01  0.7177E+02
  11.510  0.1459E+01  0.7179E+02
  11.520  0.1418E+01  0.7180E+02
  11.530  0.1387E+01  0.7182E+02
  11.540  0.1350E+01  0.7183E+02
  11.550  0.1258E+01  0.7185E+02
  11.560  0.1156E+01  0.7186E+02
  11.570  0.1060E+01  0.7187E+02
  11.580  0.9902E+00  0.7188E+02
  11.590  0.9524E+00  0.7189E+02
  11.600  0.9409E+00  0.7190E+02
  11.610  0.9173E+00  0.7191E+02
  11.620  0.8852E+00  0.7192E+02
  11.630  0.8076E+00  0.7192E+02
  11.640  0.7756E+00  0.7193E+02
  11.650  0.7221E+00  0.7194E+02
  11.660  0.6905E+00  0.7195E+02
  11.670  0.6690E+00  0.7195E+02
  11.680  0.6982E+00  0.7196E+02
  11.690  0.7218E+00  0.7197E+02
  11.700  0.6529E+00  0.7197E+02
  11.710  0.5839E+00  0.7198E+02
  11.720  0.5079E+00  0.7199E+02
  11.730  0.4922E+00  0.7199E+02
  11.740  0.8754E+01  0.7200E+02
  11.750  0.5330E-01  0.7200E+02
  11.760  0.2861E-01  0.7200E+02
  11.770  0.3915E-02  0.7200E+02
  11.780  0.0000E+00  0.7200E+02
  11.790  0.0000E+00  0.7200E+02
  11.800  0.0000E+00  0.7200E+02
  11.810  0.0000E+00  0.7200E+02
  11.820  0.0000E+00  0.7200E+02
  11.830  0.0000E+00  0.7200E+02
  11.840  0.0000E+00  0.7200E+02
  11.850  0.0000E+00  0.7200E+02
  11.860  0.0000E+00  0.7200E+02
  11.870  0.0000E+00  0.7200E+02
  11.880  0.0000E+00  0.7200E+02
  11.890  0.0000E+00  0.7200E+02
  11.900  0.0000E+00  0.7200E+02
  11.910  0.0000E+00  0.7200E+02
  11.920  0.0000E+00  0.7200E+02
  11.930  0.0000E+00  0.7200E+02
  11.940  0.0000E+00  0.7200E+02
  11.950  0.0000E+00  0.7200E+02
  11.960  0.0000E+00  0.7200E+02
  11.970  0.0000E+00  0.7200E+02
  11.980  0.0000E+00  0.7200E+02
  11.990  0.0000E+00  0.7200E+02
  12.000  0.0000E+00  0.7200E+02
  12.010  0.0000E+00  0.7200E+02
  12.020  0.0000E+00  0.7200E+02
  12.030  0.0000E+00  0.7200E+02
  12.040  0.0000E+00  0.7200E+02
  12.050  0.0000E+00  0.7200E+02
  12.060  0.0000E+00  0.7200E+02
  12.070  0.0000E+00  0.7200E+02
  12.080  0.0000E+00  0.7200E+02
  12.090  0.0000E+00  0.7200E+02
  12.100  0.0000E+00  0.7200E+02
  12.110  0.0000E+00  0.7200E+02
  12.120  0.0000E+00  0.7200E+02
  12.130  0.0000E+00  0.7200E+02
  12.140  0.0000E+00  0.7200E+02
  12.150  0.0000E+00  0.7200E+02
  12.160  0.0000E+00  0.7200E+02
  12.170  0.0000E+00  0.7200E+02
  12.180  0.0000E+00  0.7200E+02
  12.190  0.0000E+00  0.7200E+02
  12.200  0.0000E+00  0.7200E+02
  12.210  0.0000E+00  0.7200E+02
  12.220  0.0000E+00  0.7200E+02
  12.230  0.0000E+00  0.7200E+02
  12.240  0.0000E+00  0.7200E+02
  12.250  0.0000E+00  0.7200E+02
  12.260  0.0000E+00  0.7200E+02
  12.270  0.0000E+00  0.7200E+02
  12.280  0.0000E+00  0.7200E+02
  12.290  0.0000E+00  0.7200E+02
  12.300  0.0000E+00  0.7200E+02
  12.310  0.0000E+00  0.7200E+02
  12.320  0.0000E+00  0.7200E+02
  12.330  0.0000E+00  0.7200E+02
  12.340  0.0000E+00  0.7200E+02
  12.350  0.0000E+00  0.7200E+02
  12.360  0.0000E+00  0.7200E+02
  12.370  0.0000E+00  0.7200E+02
  12.380  0.0000E+00  0.7200E+02
  12.390  0.0000E+00  0.7200E+02
  12.400  0.0000E+00  0.7200E+02
  12.410  0.0000E+00  0.7200E+02
  12.420  0.0000E+00  0.7200E+02
  12.430  0.0000E+00  0.7200E+02
  12.440  0.0000E+00  0.7200E+02
  12.450  0.0000E+00  0.7200E+02
  12.460  0.0000E+00  0.7200E+02
  12.470  0.0000E+00  0.7200E+02
  12.480  0.0000E+00  0.7200E+02
  12.490  0.0000E+00  0.7200E+02
  12.500  0.0000E+00  0.7200E+02
  12.510  0.0000E+00  0.7200E+02
  12.520  0.0000E+00  0.7200E+02
  12.530  0.0000E+00  0.7200E+02
  12.540  0.0000E+00  0.7200E+02
  12.550  0.0000E+00  0.7200E+02
  12.560  0.0000E+00  0.7200E+02
  12.570  0.0000E+00  0.7200E+02
  12.580  0.0000E+00  0.7200E+02
  12.590  0.0000E+00  0.7200E+02
  12.600  0.0000E+00  0.7200E+02
  12.610  0.0000E+00  0.7200E+02
  12.620  0.0000E+00  0.7200E+02
  12.630  0.0000E+00  0.7200E+02
  12.640  0.0000E+00  0.7200E+02
  12.650  0.0000E+00  0.7200E+02
  12.660  0.0000E+00  0.7200E+02
  12.670  0.0000E+00  0.7200E+02
  12.680  0.0000E+00  0.7200E+02
  12.690  0.0000E+00  0.7200E+02
  12.700  0.0000E+00  0.7200E+02
  12.710  0.0000E+00  0.7200E+02
  12.720  0.0000E+00  0.7200E+02
  12.730  0.0000E+00  0.7200E+02
  12.740  0.0000E+00  0.7200E+02
  12.750  0.0000E+00  0.7200E+02
  12.760  0.0000E+00  0.7200E+02
  12.770  0.0000E+00  0.7200E+02
  12.780  0.0000E+00  0.7200E+02
  12.790  0.0000E+00  0.7200E+02
  12.800  0.0000E+00  0.7200E+02
  12.810  0.0000E+00  0.7200E+02
  12.820  0.0000E+00  0.7200E+02
  12.830  0.0000E+00  0.7200E+02
  12.840  0.0000E+00  0.7200E+02
  12.850  0.0000E+00  0.7200E+02
  12.860  0.0000E+00  0.7200E+02
  12.870  0.0000E+00  0.7200E+02
  12.880  0.0000E+00  0.7200E+02
  12.890  0.0000E+00  0.7200E+02
  12.900  0.0000E+00  0.7200E+02
  12.910  0.0000E+00  0.7200E+02
  12.920  0.0000E+00  0.7200E+02
  12.930  0.0000E+00  0.7200E+02
  12.940  0.0000E+00  0.7200E+02
  12.950  0.0000E+00  0.7200E+02
  12.960  0.0000E+00  0.7200E+02
  12.970  0.0000E+00  0.7200E+02
  12.980  0.0000E+00  0.7200E+02
  12.990  0.0000E+00  0.7200E+02
  13.000  0.0000E+00  0.7200E+02
  13.010  0.0000E+00  0.7200E+02
  13.020  0.0000E+00  0.7200E+02
  13.030  0.0000E+00  0.7200E+02
  13.040  0.0000E+00  0.7200E+02
  13.050  0.0000E+00  0.7200E+02
  13.060  0.0000E+00  0.7200E+02
  13.070  0.0000E+00  0.7200E+02
  13.080  0.0000E+00  0.7200E+02
  13.090  0.0000E+00  0.7200E+02
  13.100  0.0000E+00  0.7200E+02
  13.110  0.0000E+00  0.7200E+02
  13.120  0.0000E+00  0.7200E+02
  13.130  0.0000E+00  0.7200E+02
  13.140  0.0000E+00  0.7200E+02
  13.150  0.0000E+00  0.7200E+02
  13.160  0.0000E+00  0.7200E+02
  13.170  0.0000E+00  0.7200E+02
  13.180  0.0000E+00  0.7200E+02
  13.190  0.0000E+00  0.7200E+02
  13.200  0.0000E+00  0.7200E+02
  13.210  0.0000E+00  0.7200E+02
  13.220  0.0000E+00  0.7200E+02
  13.230  0.0000E+00  0.7200E+02
  13.240  0.0000E+00  0.7200E+02
  13.250  0.0000E+00  0.7200E+02
  13.260  0.0000E+00  0.7200E+02
  13.270  0.0000E+00  0.7200E+02
  13.280  0.0000E+00  0.7200E+02
  13.290  0.0000E+00  0.7200E+02
  13.300  0.0000E+00  0.7200E+02
  13.310  0.0000E+00  0.7200E+02
  13.320  0.0000E+00  0.7200E+02
  13.330  0.0000E+00  0.7200E+02
  13.340  0.0000E+00  0.7200E+02
  13.350  0.0000E+00  0.7200E+02
  13.360  0.0000E+00  0.7200E+02
  13.370  0.0000E+00  0.7200E+02
  13.380  0.0000E+00  0.7200E+02
  13.390  0.0000E+00  0.7200E+02
  13.400  0.0000E+00  0.7200E+02
  13.410  0.0000E+00  0.7200E+02
  13.420  0.0000E+00  0.7200E+02
  13.430  0.0000E+00  0.7200E+02
  13.440  0.0000E+00  0.7200E+02
  13.450  0.0000E+00  0.7200E+02
  13.460  0.0000E+00  0.7200E+02
  13.470  0.0000E+00  0.7200E+02
  13.480  0.0000E+00  0.7200E+02
  13.490  0.0000E+00  0.7200E+02
  13.500  0.0000E+00  0.7200E+02
  13.510  0.0000E+00  0.7200E+02
  13.520  0.0000E+00  0.7200E+02
  13.530  0.0000E+00  0.7200E+02
  13.540  0.0000E+00  0.7200E+02
  13.550  0.0000E+00  0.7200E+02
  13.560  0.0000E+00  0.7200E+02
  13.570  0.0000E+00  0.7200E+02
  13.580  0.0000E+00  0.7200E+02
  13.590  0.0000E+00  0.7200E+02
  13.600  0.0000E+00  0.7200E+02
  13.610  0.0000E+00  0.7200E+02
  13.620  0.0000E+00  0.7200E+02
  13.630  0.0000E+00  0.7200E+02
  13.640  0.0000E+00  0.7200E+02
  13.650  0.0000E+00  0.7200E+02
  13.660  0.0000E+00  0.7200E+02
  13.670  0.0000E+00  0.7200E+02
  13.680  0.0000E+00  0.7200E+02
  13.690  0.0000E+00  0.7200E+02
  13.700  0.0000E+00  0.7200E+02
  13.710  0.0000E+00  0.7200E+02
  13.720  0.0000E+00  0.7200E+02
  13.730  0.0000E+00  0.7200E+02
  13.740  0.0000E+00  0.7200E+02
  13.750  0.0000E+00  0.7200E+02
  13.760  0.0000E+00  0.7200E+02
  13.770  0.0000E+00  0.7200E+02
  13.780  0.0000E+00  0.7200E+02
  13.790  0.0000E+00  0.7200E+02
  13.800  0.0000E+00  0.7200E+02
  13.810  0.0000E+00  0.7200E+02
  13.820  0.0000E+00  0.7200E+02
  13.830  0.0000E+00  0.7200E+02
  13.840  0.0000E+00  0.7200E+02
  13.850  0.0000E+00  0.7200E+02
  13.860  0.0000E+00  0.7200E+02
  13.870  0.0000E+00  0.7200E+02
  13.880  0.0000E+00  0.7200E+02
  13.890  0.0000E+00  0.7200E+02
  13.900  0.0000E+00  0.7200E+02
  13.910  0.0000E+00  0.7200E+02
  13.920  0.0000E+00  0.7200E+02
  13.930  0.0000E+00  0.7200E+02
  13.940  0.0000E+00  0.7200E+02
  13.950  0.0000E+00  0.7200E+02
  13.960  0.0000E+00  0.7200E+02
  13.970  0.0000E+00  0.7200E+02
  13.980  0.0000E+00  0.7200E+02
  13.990  0.0000E+00  0.7200E+02
  14.000  0.0000E+00  0.7200E+02
  14.010  0.0000E+00  0.7200E+02
  14.020  0.0000E+00  0.7200E+02
  14.030  0.0000E+00  0.7200E+02
  14.040  0.0000E+00  0.7200E+02
  14.050  0.0000E+00  0.7200E+02
  14.060  0.0000E+00  0.7200E+02
  14.070  0.0000E+00  0.7200E+02
  14.080  0.0000E+00  0.7200E+02
  14.090  0.0000E+00  0.7200E+02
  14.100  0.0000E+00  0.7200E+02
  14.110  0.0000E+00  0.7200E+02
  14.120  0.0000E+00  0.7200E+02
  14.130  0.0000E+00  0.7200E+02
  14.140  0.0000E+00  0.7200E+02
  14.150  0.0000E+00  0.7200E+02
  14.160  0.0000E+00  0.7200E+02
  14.170  0.0000E+00  0.7200E+02
  14.180  0.0000E+00  0.7200E+02
  14.190  0.0000E+00  0.7200E+02
  14.200  0.0000E+00  0.7200E+02
  14.210  0.0000E+00  0.7200E+02
  14.220  0.0000E+00  0.7200E+02
  14.230  0.0000E+00  0.7200E+02
  14.240  0.0000E+00  0.7200E+02
  14.250  0.0000E+00  0.7200E+02
  14.260  0.0000E+00  0.7200E+02
  14.270  0.0000E+00  0.7200E+02
  14.280  0.0000E+00  0.7200E+02
  14.290  0.0000E+00  0.7200E+02
  14.300  0.0000E+00  0.7200E+02
  14.310  0.0000E+00  0.7200E+02
  14.320  0.0000E+00  0.7200E+02
  14.330  0.0000E+00  0.7200E+02
  14.340  0.0000E+00  0.7200E+02
  14.350  0.0000E+00  0.7200E+02
  14.360  0.0000E+00  0.7200E+02
  14.370  0.0000E+00  0.7200E+02
  14.380  0.0000E+00  0.7200E+02
  14.390  0.0000E+00  0.7200E+02
  14.400  0.0000E+00  0.7200E+02
  14.410  0.0000E+00  0.7200E+02
  14.420  0.0000E+00  0.7200E+02
  14.430  0.0000E+00  0.7200E+02
  14.440  0.0000E+00  0.7200E+02
  14.450  0.0000E+00  0.7200E+02
  14.460  0.0000E+00  0.7200E+02
  14.470  0.0000E+00  0.7200E+02
  14.480  0.0000E+00  0.7200E+02
  14.490  0.0000E+00  0.7200E+02
  14.500  0.0000E+00  0.7200E+02
  14.510  0.0000E+00  0.7200E+02
  14.520  0.0000E+00  0.7200E+02
  14.530  0.0000E+00  0.7200E+02
  14.540  0.0000E+00  0.7200E+02
  14.550  0.0000E+00  0.7200E+02
  14.560  0.0000E+00  0.7200E+02
  14.570  0.0000E+00  0.7200E+02
  14.580  0.0000E+00  0.7200E+02
  14.590  0.0000E+00  0.7200E+02
  14.600  0.0000E+00  0.7200E+02
  14.610  0.0000E+00  0.7200E+02
  14.620  0.0000E+00  0.7200E+02
  14.630  0.0000E+00  0.7200E+02
  14.640  0.0000E+00  0.7200E+02
  14.650  0.0000E+00  0.7200E+02
  14.660  0.0000E+00  0.7200E+02
  14.670  0.0000E+00  0.7200E+02
  14.680  0.0000E+00  0.7200E+02
  14.690  0.0000E+00  0.7200E+02
  14.700  0.0000E+00  0.7200E+02
  14.710  0.0000E+00  0.7200E+02
  14.720  0.0000E+00  0.7200E+02
  14.730  0.0000E+00  0.7200E+02
  14.740  0.0000E+00  0.7200E+02
  14.750  0.0000E+00  0.7200E+02
  14.760  0.0000E+00  0.7200E+02
  14.770  0.0000E+00  0.7200E+02
  14.780  0.0000E+00  0.7200E+02
  14.790  0.0000E+00  0.7200E+02
  14.800  0.0000E+00  0.7200E+02
  14.810  0.0000E+00  0.7200E+02
  14.820  0.0000E+00  0.7200E+02
  14.830  0.0000E+00  0.7200E+02
  14.840  0.0000E+00  0.7200E+02
  14.850  0.0000E+00  0.7200E+02
  14.860  0.0000E+00  0.7200E+02
  14.870  0.0000E+00  0.7200E+02
  14.880  0.0000E+00  0.7200E+02
  14.890  0.0000E+00  0.7200E+02
  14.900  0.0000E+00  0.7200E+02
  14.910  0.0000E+00  0.7200E+02
  14.920  0.0000E+00  0.7200E+02
  14.930  0.0000E+00  0.7200E+02
  14.940  0.0000E+00  0.7200E+02
  14.950  0.0000E+00  0.7200E+02
  14.960  0.0000E+00  0.7200E+02
  14.970  0.0000E+00  0.7200E+02
  14.980  0.0000E+00  0.7200E+02
  14.990  0.0000E+00  0.7200E+02
  15.000  0.0000E+00  0.7200E+02
